CLOSED
Version	1.0
Language	English
Run	1
RunSerial	820
Instrument	TGA Q500 V6.7 Build 203
Module	TGA
InstSerial	0500-0499
Operator	at615
File	C:\TA\Data\TGA\ak794\anders\cellulose nanorods 1.001
FurnaceType	Standard
Sample	Cellulose Nanorods 1 Air
Size	4.70800	mg
ProcName
Method	
Comment	
Xcomment	Pan: Platinum
Xcomment	Gas1: Air
Xcomment	Gas2: Air
Xcomment	Balance Gas: Air 40.0 ml/min
Xcomment	Sample Gas: Air 60.0 ml/min
Text	cellulose nanorods degradation in air
Kcell	1.00000
TempCal	3	pts	20.00	20.00,364.00	356.00,776.00	770.00
InstCalDate	Weight Date 2013-03-01 10:10:44
Controls	Gas 2  Event Off  Sampling 2.0
Nsig	5
Sig1	Time (min)
Sig2	Temperature (°C)
Sig3	Weight (mg)
Sig4	Balance Purge Flow (mL/min)
Sig5	Sample Purge Flow (mL/min)
AirCoolTime	20.0 min
AutoAnalysis	Off
MacroFile
Date	2013-03-11
Time	11:27:22
OrgMethod	1: Ramp 10.00 °C/min to 600.00 °C
OrgFile	C:\Users\AIM_Group\Desktop\post doc cambridge\Students files\Internships\Anders\anders tga\anders\cellulose nanorods 1.001
6.66667E-4 18.70534 4.708418 39.99904 59.99120
0.01666667 18.71425 4.708730 39.99424 60.00894
0.05000000 18.73930 4.709024 39.99606 59.98738
0.08333334 18.78952 4.709008 39.99572 60.00139
0.1166666 18.86459 4.709222 40.00119 60.00902
0.1500000 18.96382 4.709231 40.01214 60.00628
0.1833334 19.08654 4.709687 39.98441 59.98956
0.2166667 19.22838 4.710160 40.00653 59.99690
0.2500000 19.38886 4.710312 40.00102 60.00084
0.2833333 19.56378 4.710621 40.01447 60.01209
0.3166666 19.75446 4.710774 39.99174 59.99848
0.3500000 19.95650 4.711206 39.99888 59.99613
0.3833333 20.17046 4.711398 40.00416 59.99156
0.4166666 20.39504 4.710935 39.98694 60.00538
0.4500000 20.63003 4.710736 40.01768 60.01108
0.4833333 20.87325 4.710308 39.99761 59.98902
0.5166666 21.12406 4.710340 39.99470 59.99838
0.5500000 21.38206 4.710066 39.99280 60.00535
0.5833332 21.64636 4.709798 40.00474 59.99889
0.6166668 21.91822 4.709710 39.99200 60.00903
0.6500000 22.19580 4.709900 40.00376 59.98686
0.6833334 22.47617 4.710500 40.00665 60.00718
0.7166666 22.76294 4.710250 39.99810 59.98640
0.7500000 23.05295 4.710500 39.99269 60.01172
0.7833334 23.34598 4.710504 40.01415 60.00060
0.8166668 23.64387 4.710370 39.98738 60.00440
0.8500000 23.94588 4.710122 39.99883 59.98611
0.8833332 24.24960 4.709928 40.02269 60.00870
0.9166668 24.55564 4.710086 39.99118 59.99988
0.9500000 24.86438 4.710231 39.99092 59.99666
0.9833334 25.17582 4.709928 40.00467 60.00430
1.016667 25.48925 4.709537 40.01200 60.00050
1.050000 25.80453 4.708900 39.98342 59.99370
1.083334 26.12106 4.708937 40.00917 60.00730
1.116667 26.43837 4.708630 39.99785 60.00699
1.150000 26.75652 4.708496 39.98755 59.98676
1.183333 27.07646 4.708574 40.00511 60.00722
1.216667 27.39790 4.708454 40.00189 59.99621
1.250000 27.71905 4.708219 40.00725 59.99467
1.283333 28.04069 4.707817 39.99400 60.01134
1.316667 28.36253 4.708144 40.00206 59.98660
1.350000 28.68506 4.708326 39.99932 60.00690
1.383333 29.00785 4.708064 39.99383 60.00410
1.416666 29.33247 4.707541 40.00290 59.99864
1.450000 29.65505 4.707038 40.00356 60.00161
1.483334 29.97894 4.706687 39.98826 59.99149
1.516666 30.30113 4.706484 40.00711 59.99883
1.550000 30.62559 4.706500 40.00205 60.00215
1.583334 30.95002 4.706447 40.00620 60.00127
1.616666 31.27440 4.706176 39.98965 60.00012
1.650000 31.59704 4.706030 40.00512 59.99824
1.683333 31.91967 4.705818 39.99875 60.00766
1.716667 32.24333 4.705310 39.99934 59.99648
1.750000 32.56610 4.704949 40.01609 59.99995
1.783333 32.88882 4.705042 39.98964 59.99889
1.816667 33.21262 4.705056 40.00409 60.00335
1.850000 33.53460 4.704693 39.98656 59.99557
1.883334 33.85848 4.703825 40.00134 59.99484
1.916666 34.18022 4.703585 39.99968 59.99710
1.950000 34.50156 4.703739 40.00284 60.01389
1.983334 34.82478 4.704336 39.99431 59.98837
2.016666 35.14815 4.703447 40.00774 60.00166
2.050000 35.46882 4.702779 40.00608 60.00482
2.083333 35.78993 4.701981 39.98938 60.00082
2.116666 36.11276 4.702199 40.01146 60.00715
2.150000 36.43447 4.702484 39.99230 59.98652
2.183334 36.75622 4.702316 40.01164 60.01440
2.216667 37.07866 4.702100 39.99477 59.98500
2.250000 37.40042 4.701935 39.98786 60.00400
2.283333 37.72228 4.700903 39.99836 59.99553
2.316666 38.04411 4.700574 40.00232 60.00093
2.350000 38.36502 4.700258 40.01782 60.00678
2.383334 38.68695 4.700063 39.97910 59.99038
2.416667 39.00919 4.699977 40.00037 60.00450
2.450000 39.33034 4.699954 39.99532 59.99478
2.483334 39.65200 4.699646 40.01788 60.01684
2.516666 39.97496 4.699174 39.98810 59.99680
2.550000 40.29481 4.698834 40.00572 60.00263
2.583333 40.61680 4.698282 39.99246 59.99494
2.616666 40.94036 4.697876 40.00972 60.00385
2.650000 41.26186 4.697788 39.98955 59.99656
2.683334 41.58458 4.697809 39.99844 59.99337
2.716667 41.90671 4.697372 40.00450 60.00925
2.750000 42.22925 4.697016 40.01013 59.99490
2.783333 42.55291 4.696716 39.98599 59.99112
2.816666 42.87626 4.696409 39.99918 60.01182
2.850000 43.19894 4.695734 40.00439 59.99114
2.883334 43.52066 4.695040 40.01406 60.00516
2.916667 43.84488 4.695109 39.99346 60.00184
2.950000 44.16853 4.694914 40.00125 59.99710
2.983334 44.49258 4.694676 39.99630 60.00150
3.016666 44.81638 4.694568 40.01030 59.99974
3.050000 45.14215 4.694124 39.98852 59.99047
3.083333 45.46625 4.693818 39.99606 60.01176
3.116666 45.79096 4.693570 40.00556 60.00620
3.150000 46.11529 4.693207 40.01789 59.99178
3.183334 46.44072 4.692916 39.97780 59.99540
3.216667 46.76680 4.692660 40.00340 60.00630
3.250000 47.09122 4.692459 40.00654 59.99352
3.283333 47.41695 4.691980 39.98972 60.00408
3.316666 47.74164 4.691438 39.99837 59.99830
3.350000 48.06918 4.691278 40.00878 60.00974
3.383334 48.39708 4.691100 39.99887 59.99086
3.416667 48.72382 4.690664 39.99750 59.99861
3.450000 49.04831 4.690059 39.99560 60.00512
3.483333 49.37510 4.689450 40.01105 60.00239
3.516667 49.70122 4.689119 39.99669 59.99534
3.550000 50.02963 4.689038 40.00286 59.99720
3.583333 50.35813 4.688852 39.99409 60.00295
3.616666 50.68574 4.688534 40.00086 60.00464
3.650000 51.01297 4.687962 39.99667 59.99071
3.683334 51.33985 4.687085 40.01623 60.00870
3.716667 51.66807 4.686739 39.98088 59.99741
3.750000 51.99578 4.686940 40.00275 59.99180
3.783333 52.32534 4.686591 40.00027 60.00168
3.816666 52.65370 4.686172 40.01902 60.00572
3.850000 52.98230 4.685698 39.98462 59.99729
3.883334 53.31045 4.685280 39.99469 60.00743
3.916667 53.64006 4.684844 40.00287 59.98980
3.950000 53.96861 4.684846 39.99770 60.00701
3.983333 54.29902 4.684717 39.99500 60.00224
4.016667 54.62766 4.684199 40.01490 60.00328
4.050000 54.95675 4.683934 39.99588 59.99550
4.083334 55.28742 4.683654 39.99548 59.99839
4.116667 55.61674 4.683150 40.00637 59.99466
4.150000 55.94631 4.682627 39.99730 60.00647
4.183334 56.27620 4.682187 40.00026 59.99063
4.216667 56.60694 4.681708 40.01683 60.00618
4.250000 56.93840 4.681710 39.97695 60.01300
4.283333 57.26849 4.681616 40.00894 59.98403
4.316666 57.59951 4.681181 39.99586 60.01201
4.350000 57.93026 4.680392 40.02220 59.99092
4.383333 58.26075 4.679808 39.98134 60.00384
4.416666 58.59138 4.679388 39.99382 59.99140
4.450000 58.92296 4.679300 40.00922 60.00489
4.483333 59.25357 4.678784 39.99418 60.00272
4.516667 59.58796 4.678967 40.00212 60.00328
4.550000 59.91900 4.678758 39.98874 59.99746
4.583334 60.25045 4.678161 40.01653 59.99888
4.616667 60.58230 4.677969 39.99584 59.99958
4.650000 60.91324 4.677266 40.00886 59.99684
4.683334 61.24413 4.676706 39.98148 60.00713
4.716667 61.57598 4.676309 40.00063 59.99631
4.750000 61.90824 4.675490 39.99774 60.00660
4.783333 62.23940 4.675612 40.02000 59.98782
4.816666 62.57123 4.675089 39.97422 60.00156
4.850000 62.90359 4.674635 40.01389 60.01380
4.883333 63.23413 4.674086 40.01248 60.00090
4.916666 63.56568 4.673867 39.97672 59.98700
4.950000 63.89998 4.673618 40.01850 59.99840
4.983333 64.23287 4.673422 39.99300 60.01911
5.016667 64.56629 4.672956 39.99301 59.98657
5.050000 64.89876 4.672545 40.00834 60.00928
5.083334 65.23182 4.672294 39.99720 59.99276
5.116667 65.56545 4.672116 39.99353 60.00789
5.150000 65.89838 4.671682 39.99622 59.97452
5.183334 66.23020 4.671020 40.00578 60.01306
5.216667 66.56360 4.670694 39.99348 60.00099
5.250000 66.89538 4.669916 40.01040 60.00097
5.283332 67.22784 4.669713 39.99472 60.00138
5.316666 67.56110 4.669266 39.99462 60.00342
5.350000 67.89319 4.668628 40.00398 59.99426
5.383332 68.22618 4.668168 40.01150 60.00532
5.416666 68.55872 4.667740 40.00278 59.99902
5.450000 68.89098 4.667164 39.99207 59.98524
5.483332 69.22394 4.666711 39.99254 60.00370
5.516668 69.55655 4.666450 40.00764 60.00213
5.550000 69.89106 4.666228 40.00488 60.00870
5.583334 70.22495 4.665894 40.00237 59.99768
5.616668 70.55900 4.665463 39.99472 60.00168
5.650000 70.89100 4.664737 39.99754 60.00121
5.683334 71.22442 4.664350 40.00198 59.99635
5.716668 71.55871 4.664118 40.00100 60.00520
5.750000 71.89166 4.663690 39.99610 59.99000
5.783332 72.22570 4.663234 40.00584 60.00828
5.816666 72.55900 4.662850 39.99453 59.99913
5.850000 72.89225 4.662293 40.00370 60.00058
5.883332 73.22543 4.661744 39.99451 59.99374
5.916666 73.55790 4.661434 40.00944 59.99627
5.950000 73.89166 4.661204 39.99076 60.00412
5.983332 74.22678 4.660796 40.00074 60.00449
6.016668 74.55900 4.660156 40.00844 59.99609
6.050000 74.89163 4.659650 39.99817 60.00196
6.083334 75.22530 4.659049 40.00061 59.99411
6.116668 75.55835 4.658552 39.98494 60.01050
6.150000 75.89190 4.658271 40.01642 59.99937
6.183334 76.22500 4.657988 39.99664 59.99174
6.216668 76.55919 4.657563 40.00404 60.00212
6.250000 76.89250 4.657152 39.98941 59.99957
6.283332 77.22608 4.656384 40.00336 59.99660
6.316666 77.56084 4.655758 39.99875 59.99940
6.350000 77.89337 4.655232 40.00225 60.00230
6.383332 78.22732 4.654814 39.99365 59.99851
6.416666 78.56153 4.654533 40.00726 60.01044
6.450000 78.89374 4.653933 40.00237 59.99676
6.483332 79.22866 4.653213 39.99412 59.99832
6.516668 79.56176 4.652637 40.00831 59.99750
6.550000 79.89478 4.652287 39.99092 60.00092
6.583334 80.22808 4.651752 39.99994 59.99478
6.616668 80.56272 4.651364 39.99950 60.00382
6.650000 80.89706 4.651071 40.00378 60.00142
6.683334 81.23135 4.650613 39.99680 59.99426
6.716666 81.56434 4.650047 40.01183 60.00735
6.750000 81.89934 4.649640 39.99304 59.99600
6.783334 82.23165 4.648929 39.99187 60.00178
6.816666 82.56687 4.648766 40.00466 60.00056
6.850000 82.90228 4.648782 40.00711 59.99818
6.883332 83.23555 4.648106 40.00408 60.00910
6.916666 83.57020 4.647559 39.98782 59.99680
6.950000 83.90304 4.647036 40.00730 60.00171
6.983332 84.23582 4.646308 39.99039 60.00346
7.016668 84.56892 4.645570 40.00180 59.99044
7.050000 84.90259 4.645248 40.00616 60.00842
7.083334 85.23554 4.644630 39.99452 59.99430
7.116668 85.56915 4.644153 39.99961 59.99512
7.150000 85.90380 4.643918 39.99933 60.00068
7.183334 86.23895 4.644102 40.00228 60.00762
7.216666 86.57201 4.643907 40.00171 59.99000
7.250000 86.90549 4.643144 39.99766 60.00942
7.283334 87.23749 4.642285 39.99859 59.99778
7.316666 87.57079 4.641919 40.00140 59.99800
7.350000 87.90328 4.641426 39.99428 60.00090
7.383332 88.23908 4.641150 40.00012 60.00136
7.416666 88.57343 4.641180 40.00402 59.99984
7.450000 88.90662 4.640013 39.99990 60.00234
7.483332 89.24181 4.639360 40.00417 59.99679
7.516668 89.57550 4.638367 39.99490 60.00531
7.550000 89.91028 4.638172 40.02054 59.99724
7.583334 90.24580 4.637984 39.97600 59.99720
7.616668 90.57755 4.637216 40.00478 59.99900
7.650000 90.91007 4.636457 40.00034 60.00175
7.683334 91.24371 4.635642 40.01033 59.99590
7.716666 91.57609 4.635101 39.98642 60.00720
7.750000 91.90892 4.634530 40.00269 60.00092
7.783334 92.24169 4.634137 40.00162 59.99870
7.816666 92.57504 4.633728 40.00622 59.99247
7.850000 92.90949 4.633360 39.99356 60.00648
7.883332 93.24269 4.632859 39.99472 59.99650
7.916666 93.57568 4.632074 40.00392 60.00639
7.950000 93.90778 4.631498 40.00658 59.98750
7.983332 94.24261 4.631424 39.99748 60.00652
8.016666 94.57709 4.631140 40.00022 59.99796
8.050000 94.91199 4.630761 40.00587 60.00008
8.083332 95.24850 4.630722 39.99362 60.00027
8.116668 95.58139 4.629944 39.99984 60.00086
8.150000 95.91328 4.628922 39.99722 59.99331
8.183334 96.24528 4.628090 40.00710 60.00470
8.216666 96.57638 4.627322 39.99288 60.00576
8.250000 96.90824 4.626930 40.00278 59.99001
8.283334 97.24194 4.626724 40.00376 60.00496
8.316666 97.57605 4.626339 39.99312 59.99837
8.350000 97.90929 4.625888 40.00322 60.00224
8.383332 98.24325 4.625262 39.99542 59.99631
8.416668 98.57706 4.624668 40.00841 59.99798
8.450000 98.91063 4.624303 39.99617 60.01448
8.483334 99.24431 4.623784 39.99508 59.99213
8.516666 99.57629 4.623041 40.00217 60.00130
8.550000 99.90853 4.622588 39.99798 59.99898
8.583332 100.2436 4.622171 40.00539 59.99124
8.616668 100.5775 4.621758 39.99546 60.00516
8.650000 100.9116 4.621240 40.00629 60.00256
8.683334 101.2459 4.620754 40.00006 59.99854
8.716666 101.5782 4.620080 39.99924 60.00312
8.750000 101.9107 4.619336 39.99824 59.99324
8.783334 102.2435 4.618676 39.99636 60.00255
8.816666 102.5757 4.618452 40.00676 60.00632
8.850000 102.9084 4.618006 40.00322 59.99246
8.883332 103.2424 4.617446 40.00260 60.00754
8.916668 103.5768 4.617210 39.98734 60.00098
8.950000 103.9108 4.616630 40.00400 59.99838
8.983334 104.2455 4.616081 40.00522 59.99060
9.016666 104.5788 4.615506 40.00840 60.00010
9.050000 104.9130 4.615146 39.98989 60.00852
9.083332 105.2452 4.614488 39.99322 60.00123
9.116668 105.5796 4.613914 40.00330 59.99484
9.150000 105.9120 4.613374 39.99524 59.99511
9.183334 106.2452 4.612664 40.00283 60.00955
9.216666 106.5769 4.612107 39.99794 59.99732
9.250000 106.9102 4.611433 40.00066 60.00258
9.283334 107.2428 4.610969 40.00686 59.99389
9.316666 107.5768 4.610550 39.99834 60.00373
9.350000 107.9108 4.610244 39.99360 59.99844
9.383332 108.2458 4.609997 39.99700 59.99776
9.416668 108.5789 4.609090 40.00002 60.00741
9.450000 108.9127 4.608554 40.00140 59.99234
9.483334 109.2456 4.608072 40.00637 60.00152
9.516666 109.5780 4.607270 40.00117 59.99949
9.550000 109.9112 4.606865 40.00082 60.00584
9.583332 110.2446 4.606259 39.99870 59.99939
9.616668 110.5779 4.605816 39.99344 59.99156
9.650000 110.9106 4.605134 40.00687 60.00460
9.683334 111.2441 4.604554 40.00784 60.00764
9.716666 111.5775 4.604287 39.98572 59.99432
9.750000 111.9108 4.603750 40.00469 60.00418
9.783334 112.2438 4.603000 39.99841 59.99300
9.816666 112.5773 4.602412 40.01315 59.99906
9.850000 112.9111 4.601944 39.98684 60.00420
9.883332 113.2437 4.601422 39.99590 60.00208
9.916668 113.5777 4.600834 39.99904 59.99910
9.950000 113.9109 4.600115 40.00656 60.00068
9.983334 114.2442 4.599672 40.00340 59.99071
10.01667 114.5770 4.598896 39.99600 60.01210
10.05000 114.9098 4.598580 39.99416 59.98668
10.08333 115.2453 4.598350 40.00833 60.00112
10.11667 115.5806 4.598010 39.99646 60.00962
10.15000 115.9139 4.597264 40.00320 59.99445
10.18333 116.2470 4.596406 39.99250 59.99912
10.21667 116.5787 4.595743 40.00938 60.00791
10.25000 116.9130 4.595361 39.99396 59.99894
10.28333 117.2477 4.595080 40.00954 59.98884
10.31667 117.5834 4.594816 39.99813 60.00445
10.35000 117.9173 4.594081 39.99236 59.99604
10.38333 118.2497 4.593191 39.99750 60.00166
10.41667 118.5836 4.592810 40.00564 60.00602
10.45000 118.9166 4.592266 39.99408 59.99852
10.48333 119.2498 4.591748 40.00306 59.99816
10.51666 119.5828 4.591067 40.00378 60.00902
10.55000 119.9143 4.590343 40.00554 59.98868
10.58333 120.2480 4.589956 39.99834 60.01030
10.61667 120.5812 4.589527 39.99641 59.99382
10.65000 120.9130 4.588713 40.00002 60.00410
10.68334 121.2462 4.588287 39.99489 60.00182
10.71666 121.5801 4.587952 40.00094 59.98511
10.75000 121.9140 4.587402 40.00111 60.01284
10.78334 122.2480 4.586939 39.99822 59.99900
10.81666 122.5808 4.586475 40.00659 59.99940
10.85000 122.9136 4.585902 39.99366 60.00169
10.88333 123.2479 4.585809 39.99880 59.99610
10.91667 123.5804 4.585326 40.00465 60.00675
10.95000 123.9141 4.584628 40.00601 59.99688
10.98334 124.2460 4.583956 39.98853 60.00362
11.01666 124.5790 4.583352 40.01336 59.99168
11.05000 124.9112 4.582816 39.99362 60.00356
11.08333 125.2466 4.582348 40.00325 59.99638
11.11667 125.5810 4.582011 40.00110 60.00322
11.15000 125.9150 4.581554 40.00140 60.00470
11.18334 126.2485 4.580869 39.99530 59.98839
11.21666 126.5797 4.579954 40.00189 60.00079
11.25000 126.9111 4.579257 39.99465 60.00126
11.28334 127.2443 4.578902 39.99695 60.00284
11.31666 127.5774 4.578410 40.00199 60.00530
11.35000 127.9116 4.577807 40.00284 59.99015
11.38333 128.2458 4.577610 39.99846 60.00578
11.41667 128.5807 4.577142 40.00642 59.99360
11.45000 128.9137 4.576435 39.98708 60.00688
11.48334 129.2462 4.575855 40.01174 59.99255
11.51666 129.5806 4.575492 39.99808 60.00170
11.55000 129.9124 4.574611 39.99754 60.00742
11.58333 130.2464 4.574226 39.99776 60.00156
11.61667 130.5787 4.573514 40.00857 59.98601
11.65000 130.9104 4.572685 39.98822 60.01458
11.68334 131.2449 4.572470 40.01217 59.98724
11.71666 131.5795 4.572096 39.99456 60.01813
11.75000 131.9108 4.571407 39.99310 59.98972
11.78334 132.2430 4.570570 39.99782 60.00668
11.81666 132.5786 4.570269 40.00037 59.99502
11.85000 132.9106 4.569723 40.00036 59.99855
11.88333 133.2438 4.569070 40.00576 59.99789
11.91667 133.5789 4.568917 40.00598 60.00097
11.95000 133.9130 4.568287 39.98957 60.00342
11.98334 134.2469 4.567636 39.99953 59.99852
12.01666 134.5788 4.566978 40.00050 59.99834
12.05000 134.9135 4.566610 40.00054 59.99628
12.08333 135.2464 4.566120 39.99690 60.00718
12.11667 135.5795 4.565454 40.01193 59.99145
12.15000 135.9115 4.564720 39.99147 60.00950
12.18334 136.2424 4.563921 39.99814 59.99934
12.21666 136.5745 4.563301 40.00898 59.98934
12.25000 136.9073 4.562796 39.99541 60.01092
12.28334 137.2405 4.562390 40.00237 59.99986
12.31666 137.5746 4.561840 39.99120 60.00530
12.35000 137.9090 4.561458 40.01140 59.99140
12.38333 138.2414 4.560838 39.99379 60.01376
12.41667 138.5744 4.560204 39.99395 59.98811
12.45000 138.9086 4.559654 40.00855 59.99976
12.48334 139.2413 4.559070 40.00250 60.00568
12.51666 139.5761 4.558653 40.00019 60.00395
12.55000 139.9104 4.558297 40.00525 59.98824
12.58333 140.2440 4.557720 40.00302 59.99668
12.61667 140.5776 4.557110 39.99828 59.99654
12.65000 140.9101 4.556396 39.99263 60.01362
12.68334 141.2422 4.555804 40.00798 59.98821
12.71666 141.5750 4.555225 39.98671 59.99804
12.75000 141.9098 4.554932 39.99075 60.00666
12.78334 142.2439 4.554446 40.00738 59.99555
12.81667 142.5754 4.553600 40.00699 60.01295
12.85000 142.9074 4.552804 40.00116 60.00365
12.88333 143.2402 4.552338 39.99645 59.99350
12.91667 143.5734 4.551870 39.99012 59.99449
12.95000 143.9077 4.551444 40.00084 59.99494
12.98334 144.2427 4.551093 40.01190 60.01365
13.01666 144.5769 4.550626 40.00379 59.98479
13.05000 144.9081 4.549710 39.99025 59.99910
13.08333 145.2427 4.549230 40.00342 60.00524
13.11667 145.5757 4.548887 40.00462 59.99368
13.15000 145.9087 4.548214 39.99863 60.00390
13.18333 146.2423 4.547698 40.00046 59.99730
13.21666 146.5754 4.547148 40.00317 60.01665
13.25000 146.9092 4.546726 39.98902 59.99604
13.28334 147.2419 4.545984 39.99502 59.99686
13.31667 147.5736 4.545376 40.00160 59.99740
13.35000 147.9077 4.544781 40.01212 60.00175
13.38333 148.2448 4.544885 39.98489 59.99134
13.41667 148.5786 4.544360 40.01619 60.00549
13.45000 148.9066 4.543015 39.98993 60.00620
13.48334 149.2415 4.542569 39.99760 59.99102
13.51666 149.5746 4.542172 39.99971 60.00717
13.55000 149.9083 4.541687 40.00446 60.00574
13.58333 150.2409 4.541086 40.01217 59.98441
13.61667 150.5734 4.540348 39.99750 60.01059
13.65000 150.9068 4.539910 39.99942 60.00103
13.68333 151.2434 4.539850 39.99584 59.99406
13.71666 151.5759 4.539224 39.99370 60.00462
13.75000 151.9083 4.538356 40.00232 60.00644
13.78334 152.2400 4.537671 39.99518 60.00054
13.81667 152.5730 4.537100 40.00362 59.99036
13.85000 152.9066 4.536590 40.01224 59.99347
13.88333 153.2404 4.535870 39.98631 59.99692
13.91667 153.5718 4.535326 40.00807 60.00286
13.95000 153.9036 4.534692 39.99904 60.01192
13.98334 154.2359 4.533980 39.99492 59.99426
