CLOSED						
Version	1					
Language	English					
Run	1					
RunSerial	819					
Instrument	TGA Q500 V6.7 Build 203					
Module	TGA					
InstSerial	0500-0499					
Operator	at615					
File	C:\TA\Data\TGA\ak794\anders\cellulose sponge 1.001					
FurnaceType	Standard					
Sample	Cellulose sponge 1					
Size	1.386	mg				
ProcName						
Method						
Comment						
Xcomment	Pan: Platinum					
Xcomment	Gas1: Air					
Xcomment	Gas2: Air					
Xcomment	Balance Gas: Air 40.0 ml/min					
Xcomment	Sample Gas: Air 60.0 ml/min					
Text	cellulose degradation					
Kcell	1					
TempCal	3	pts	20	"20.00,364.00"	"356.00,776.00"	770
InstCalDate	Weight Date 2013-03-01 10:10:44					
Controls	Gas 2  Event Off  Sampling 2.0					
Nsig	3					
Sig1	Time (min)					
Sig2	Temperature (°C)					
Sig3	Weight (mg)					
AirCoolTime	20.0 min					
AutoAnalysis	Off					
MacroFile						
Date	11/03/2013					
Time	09:57:57					
OrgMethod	1: Ramp 10.00 °C/min to 600.00 °C					
OrgFile	C:\Users\AIM_Group\Desktop\post doc cambridge\Students files\Internships\Anders\anders tga\anders\cellulose sponge 1.001					
.001116667 16.12102 1.385537						
0.01666667 16.11489 1.385613						
0.05000000 16.12762 1.384716						
0.08333334 16.16981 1.384657						
0.1166666 16.23988 1.384745						
0.1500000 16.33607 1.384919						
0.1833334 16.45608 1.385500						
0.2166667 16.59942 1.385064						
0.2500000 16.75990 1.384953						
0.2833333 16.93966 1.384935						
0.3166666 17.13296 1.385181						
0.3500000 17.34126 1.385574						
0.3833333 17.55793 1.385579						
0.4166666 17.78898 1.386154						
0.4500000 18.02719 1.385475						
0.4833333 18.27466 1.384888						
0.5166666 18.53028 1.384789						
0.5500000 18.79226 1.384944						
0.5833332 19.06101 1.385419						
0.6166668 19.33569 1.385266						
0.6500000 19.61532 1.385001						
0.6833334 19.90023 1.384817						
0.7166666 20.18973 1.384586						
0.7500000 20.48387 1.384631						
0.7833334 20.78066 1.384348						
0.8166668 21.08113 1.384352						
0.8500000 21.38586 1.384271						
0.8833332 21.69136 1.383884						
0.9166668 22.00075 1.383828						
0.9500000 22.31467 1.383469						
0.9833334 22.62752 1.383208						
1.016667 22.94196 1.382652						
1.050000 23.25895 1.382398						
1.083334 23.57940 1.382299						
1.116667 23.89786 1.381861						
1.150000 24.21860 1.381809						
1.183333 24.54033 1.381684						
1.216667 24.86278 1.381670						
1.250000 25.18663 1.381581						
1.283333 25.51014 1.381372						
1.316667 25.83473 1.381280						
1.350000 26.15947 1.380867						
1.383333 26.48392 1.380864						
1.416666 26.80970 1.380968						
1.450000 27.13429 1.380769						
1.483334 27.45996 1.380808						
1.516666 27.78466 1.380546						
1.550000 28.11009 1.379946						
1.583334 28.43258 1.379228						
1.616666 28.75978 1.379038						
1.650000 29.08506 1.378899						
1.683333 29.40957 1.378700						
1.716667 29.73313 1.378565						
1.750000 30.05812 1.378168						
1.783333 30.38159 1.378040						
1.816667 30.70608 1.377702						
1.850000 31.02858 1.377417						
1.883334 31.35352 1.377410						
1.916666 31.67724 1.376983						
1.950000 32.00027 1.376986						
1.983334 32.32315 1.376706						
2.016666 32.64728 1.376517						
2.050000 32.97095 1.376455						
2.083333 33.29314 1.376284						
2.116666 33.61575 1.376082						
2.150000 33.93761 1.375768						
2.183334 34.26062 1.375512						
2.216667 34.58154 1.375326						
2.250000 34.90424 1.375132						
2.283333 35.22634 1.374996						
2.316666 35.54861 1.374653						
2.350000 35.87195 1.374407						
2.383334 36.19306 1.374130						
2.416667 36.51555 1.374082						
2.450000 36.83790 1.374064						
2.483334 37.15895 1.373934						
2.516666 37.48234 1.373892						
2.550000 37.80300 1.373608						
2.583333 38.12654 1.373390						
2.616666 38.44908 1.373294						
2.650000 38.77130 1.373241						
2.683334 39.09487 1.373148						
2.716667 39.41678 1.372758						
2.750000 39.74040 1.372498						
2.783333 40.06288 1.372349						
2.816666 40.38716 1.372354						
2.850000 40.71009 1.372407						
2.883334 41.03363 1.372249						
2.916667 41.35887 1.372012						
2.950000 41.68174 1.371601						
2.983334 42.00461 1.371345						
3.016666 42.32910 1.371208						
3.050000 42.65356 1.370932						
3.083333 42.97783 1.370775						
3.116666 43.30124 1.370484						
3.150000 43.62648 1.370420						
3.183334 43.95220 1.370697						
3.216667 44.27720 1.370572						
3.250000 44.60292 1.370496						
3.283333 44.92880 1.369989						
3.316666 45.25329 1.369819						
3.350000 45.57969 1.369568						
3.383334 45.90626 1.369515						
3.416667 46.23270 1.369587						
3.450000 46.55920 1.369368						
3.483333 46.88630 1.369195						
3.516667 47.21283 1.369306						
3.550000 47.53969 1.369133						
3.583333 47.86744 1.368922						
3.616666 48.19469 1.368842						
3.650000 48.52295 1.369000						
3.683334 48.85086 1.368616						
3.716667 49.17824 1.368231						
3.750000 49.50586 1.368068						
3.783333 49.83482 1.368368						
3.816666 50.16412 1.368336						
3.850000 50.49150 1.367970						
3.883334 50.81954 1.367390						
3.916667 51.14804 1.366941						
3.950000 51.47619 1.367058						
3.983333 51.80616 1.366792						
4.016667 52.13550 1.366536						
4.050000 52.46472 1.366227						
4.083334 52.79468 1.366042						
4.116667 53.12494 1.366178						
4.150000 53.45492 1.366052						
4.183334 53.78637 1.366317						
4.216667 54.11660 1.366348						
4.250000 54.44746 1.365882						
4.283333 54.77739 1.365666						
4.316666 55.10756 1.365095						
4.350000 55.43633 1.364589						
4.383333 55.76665 1.364622						
4.416666 56.09835 1.365146						
4.450000 56.42994 1.365156						
4.483333 56.75906 1.364398						
4.516667 57.09100 1.364563						
4.550000 57.42359 1.364995						
4.583334 57.75492 1.364742						
4.616667 58.08696 1.364419						
4.650000 58.41886 1.364408						
4.683334 58.74938 1.364213						
4.716667 59.08190 1.364362						
4.750000 59.41250 1.364167						
4.783333 59.74524 1.364316						
4.816666 60.07722 1.363886						
4.850000 60.41016 1.364456						
4.883333 60.74164 1.363964						
4.916666 61.07257 1.363418						
4.950000 61.40449 1.363372						
4.983333 61.73645 1.363208						
5.016667 62.06850 1.363114						
5.050000 62.39995 1.362852						
5.083334 62.73252 1.363010						
5.116667 63.06402 1.362712						
5.150000 63.39639 1.362509						
5.183334 63.72916 1.362651						
5.216667 64.06360 1.363068						
5.250000 64.39901 1.363848						
5.283332 64.73127 1.363170						
5.316666 65.06241 1.362508						
5.350000 65.39609 1.362526						
5.383332 65.72744 1.362278						
5.416666 66.06092 1.362424						
5.450000 66.39566 1.362430						
5.483332 66.72911 1.362505						
5.516668 67.06296 1.362553						
5.550000 67.39500 1.362064						
5.583334 67.72626 1.361692						
5.616668 68.06137 1.361966						
5.650000 68.39413 1.361983						
5.683334 68.72750 1.361851						
5.716668 69.06048 1.361627						
5.750000 69.39392 1.361545						
5.783332 69.72918 1.361776						
5.816666 70.06086 1.361603						
5.850000 70.39594 1.361400						
5.883332 70.72939 1.361319						
5.916666 71.06301 1.361304						
5.950000 71.39786 1.360991						
5.983332 71.73043 1.360913						
6.016668 72.06360 1.360841						
6.050000 72.39710 1.360644						
6.083334 72.72982 1.360547						
6.116668 73.06412 1.360386						
6.150000 73.39805 1.360440						
6.183334 73.73028 1.360399						
6.216668 74.06488 1.360353						
6.250000 74.39795 1.360223						
6.283332 74.73062 1.360080						
6.316666 75.06470 1.360156						
6.350000 75.39875 1.360079						
6.383332 75.73153 1.359842						
6.416666 76.06465 1.359796						
6.450000 76.39790 1.359779						
6.483332 76.73288 1.359747						
6.516668 77.06408 1.359694						
6.550000 77.39809 1.359563						
6.583334 77.73141 1.359511						
6.616668 78.06495 1.359483						
6.650000 78.39955 1.359433						
6.683334 78.73234 1.359350						
6.716666 79.06494 1.359166						
6.750000 79.39918 1.359140						
6.783334 79.73199 1.359079						
6.816666 80.06509 1.358919						
6.850000 80.39888 1.359040						
6.883332 80.73422 1.359227						
6.916666 81.06811 1.358929						
6.950000 81.40113 1.358701						
6.983332 81.73706 1.358824						
7.016668 82.07028 1.358872						
7.050000 82.40392 1.358832						
7.083334 82.73818 1.358738						
7.116668 83.07176 1.358474						
7.150000 83.40390 1.358359						
7.183334 83.73707 1.358308						
7.216666 84.07225 1.358532						
7.250000 84.40587 1.358456						
7.283334 84.73866 1.358153						
7.316666 85.07019 1.357964						
7.350000 85.40572 1.358166						
7.383332 85.73900 1.358155						
7.416666 86.07191 1.357934						
7.450000 86.40580 1.357917						
7.483332 86.74000 1.357889						
7.516668 87.07251 1.357732						
7.550000 87.40578 1.357829						
7.583334 87.73897 1.357619						
7.616668 88.07400 1.357716						
7.650000 88.40918 1.357926						
7.683334 88.74338 1.358147						
7.716666 89.07776 1.358248						
7.750000 89.40962 1.357518						
7.783334 89.74116 1.356990						
7.816666 90.07528 1.357140						
7.850000 90.40697 1.356828						
7.883332 90.73966 1.356744						
7.916666 91.07319 1.356727						
7.950000 91.40749 1.356994						
7.983332 91.74082 1.356953						
8.016666 92.07296 1.356718						
8.050000 92.40825 1.356768						
8.083332 92.74207 1.356868						
8.116668 93.07700 1.356982						
8.150000 93.40941 1.356698						
8.183334 93.74320 1.356522						
8.216666 94.07756 1.356641						
8.250000 94.41116 1.356691						
8.283334 94.74455 1.356513						
8.316666 95.07739 1.356421						
8.350000 95.41182 1.356378						
8.383332 95.74355 1.356261						
8.416668 96.07554 1.356046						
8.450000 96.40936 1.356186						
8.483334 96.74140 1.356060						
8.516666 97.07438 1.355695						
8.550000 97.40686 1.355750						
8.583332 97.73866 1.355776						
8.616668 98.07266 1.355728						
8.650000 98.40812 1.355929						
8.683334 98.74243 1.356111						
8.716666 99.07426 1.355769						
8.750000 99.40918 1.355751						
8.783334 99.74319 1.355867						
8.816666 100.0786 1.355934						
8.850000 100.4118 1.355809						
8.883332 100.7446 1.355634						
8.916668 101.0815 1.355993						
8.950000 101.4169 1.356176						
8.983334 101.7482 1.355679						
9.016666 102.0791 1.355180						
9.050000 102.4100 1.354803						
9.083332 102.7431 1.354920						
9.116668 103.0798 1.355621						
9.150000 103.4140 1.355615						
9.183334 103.7470 1.355426						
9.216666 104.0788 1.355165						
9.250000 104.4112 1.355043						
9.283334 104.7444 1.354954						
9.316666 105.0758 1.354794						
9.350000 105.4083 1.354490						
9.383332 105.7440 1.355138						
9.416668 106.0769 1.355091						
9.450000 106.4081 1.354480						
9.483334 106.7408 1.354146						
9.516666 107.0756 1.354670						
9.550000 107.4107 1.354963						
9.583332 107.7448 1.354921						
9.616668 108.0804 1.355330						
9.650000 108.4148 1.355123						
9.683334 108.7536 1.356055						
9.716666 109.0828 1.354989						
9.750000 109.4115 1.353880						
9.783334 109.7435 1.353790						
9.816666 110.0773 1.354361						
9.850000 110.4094 1.354330						
9.883332 110.7396 1.353786						
9.916668 111.0724 1.353624						
9.950000 111.4045 1.354108						
9.983334 111.7395 1.353674						
10.01667 112.0751 1.354410						
10.05000 112.4078 1.354044						
10.08333 112.7421 1.354137						
10.11667 113.0742 1.353754						
10.15000 113.4109 1.354026						
10.18333 113.7447 1.354532						
10.21667 114.0769 1.353927						
10.25000 114.4095 1.353693						
10.28333 114.7422 1.353460						
10.31667 115.0786 1.354083						
10.35000 115.4124 1.354049						
10.38333 115.7468 1.354147						
10.41667 116.0786 1.353878						
10.45000 116.4119 1.353569						
10.48333 116.7445 1.353515						
10.51666 117.0776 1.353287						
10.55000 117.4114 1.353527						
10.58333 117.7453 1.353569						
10.61667 118.0796 1.353702						
10.65000 118.4124 1.353491						
10.68334 118.7445 1.353343						
10.71666 119.0744 1.352861						
10.75000 119.4082 1.352566						
10.78334 119.7406 1.352849						
10.81666 120.0749 1.353044						
10.85000 120.4072 1.352624						
10.88333 120.7456 1.353624						
10.91667 121.0865 1.354797						
10.95000 121.4202 1.354044						
10.98334 121.7490 1.353315						
11.01666 122.0769 1.352171						
11.05000 122.4089 1.352008						
11.08333 122.7434 1.353013						
11.11667 123.0744 1.352716						
11.15000 123.4096 1.352910						
11.18334 123.7420 1.352884						
11.21666 124.0742 1.352636						
11.25000 124.4068 1.352759						
11.28334 124.7409 1.352677						
11.31666 125.0734 1.352414						
11.35000 125.4068 1.352549						
11.38333 125.7405 1.352499						
11.41667 126.0725 1.352546						
11.45000 126.4067 1.352590						
11.48334 126.7396 1.352526						
11.51666 127.0724 1.352188						
11.55000 127.4037 1.352010						
11.58333 127.7379 1.351988						
11.61667 128.0718 1.352214						
11.65000 128.4056 1.352364						
11.68334 128.7402 1.352405						
11.71666 129.0719 1.351937						
11.75000 129.4054 1.351792						
11.78334 129.7374 1.351834						
11.81666 130.0702 1.351624						
11.85000 130.4057 1.351891						
11.88333 130.7399 1.352322						
11.91667 131.0759 1.352337						
11.95000 131.4118 1.352522						
11.98334 131.7421 1.351912						
12.01666 132.0714 1.351335						
12.05000 132.4003 1.350719						
12.08333 132.7361 1.351234						
12.11667 133.0692 1.351374						
12.15000 133.4052 1.351866						
12.18334 133.7406 1.352112						
12.21666 134.0777 1.352275						
12.25000 134.4094 1.351991						
12.28334 134.7409 1.351344						
12.31666 135.0735 1.351490						
12.35000 135.4068 1.351514						
12.38333 135.7407 1.351562						
12.41667 136.0714 1.351232						
12.45000 136.4026 1.350960						
12.48334 136.7341 1.350761						
12.51666 137.0665 1.350738						
12.55000 137.4000 1.350820						
12.58333 137.7356 1.351213						
12.61667 138.0706 1.351431						
12.65000 138.4037 1.351259						
12.68334 138.7358 1.350852						
12.71666 139.0650 1.350276						
12.75000 139.3991 1.350312						
12.78334 139.7360 1.350966						
12.81667 140.0691 1.351047						
12.85000 140.4030 1.350855						
12.88333 140.7333 1.350351						
12.91667 141.0676 1.350495						
12.95000 141.4045 1.351100						
12.98334 141.7341 1.350312						
13.01666 142.0689 1.350495						
13.05000 142.4021 1.350592						
13.08333 142.7382 1.350869						
13.11667 143.0711 1.350804						
13.15000 143.4037 1.350530						
13.18333 143.7363 1.350378						
13.21666 144.0698 1.350238						
13.25000 144.4031 1.350394						
13.28334 144.7365 1.350420						
13.31667 145.0714 1.350619						
13.35000 145.4046 1.350598						
13.38333 145.7378 1.350478						
13.41667 146.0680 1.350061						
13.45000 146.3980 1.349459						
13.48334 146.7327 1.349755						
13.51666 147.0692 1.350600						
13.55000 147.4018 1.350501						
13.58333 147.7330 1.350166						
13.61667 148.0633 1.349508						
13.65000 148.3955 1.349409						
13.68333 148.7301 1.349733						
13.71666 149.0650 1.350029						
13.75000 149.4010 1.350199						
13.78334 149.7326 1.349994						
13.81667 150.0625 1.349395						
13.85000 150.3961 1.349474						
13.88333 150.7306 1.349776						
13.91667 151.0620 1.349216						
13.95000 151.3972 1.349446						
13.98334 151.7293 1.349578						
14.01666 152.0644 1.349620						
14.05000 152.3999 1.349957						
14.08333 152.7352 1.350228						
14.11667 153.0637 1.349316						
14.15000 153.3968 1.349219						
14.18333 153.7293 1.349276						
14.21666 154.0626 1.349285						
14.25000 154.3948 1.349315						
14.28334 154.7256 1.348870						
14.31667 155.0603 1.349251						
14.35000 155.3940 1.349229						
14.38333 155.7276 1.349426						
14.41667 156.0618 1.349290						
14.45000 156.3975 1.349619						
14.48334 156.7316 1.349536						
14.51666 157.0642 1.349384						
14.55000 157.4004 1.349458						
14.58333 157.7329 1.349170						
14.61667 158.0651 1.348810						
14.65000 158.3942 1.348306						
14.68333 158.7262 1.348157						
14.71666 159.0569 1.348059						
14.75000 159.3889 1.348006						
14.78334 159.7217 1.347875						
14.81667 160.0594 1.348491						
14.85000 160.3922 1.348530						
14.88333 160.7240 1.348109						
14.91667 161.0566 1.348019						
14.95000 161.3899 1.347974						
14.98334 161.7232 1.347802						
15.01666 162.0575 1.348005						
15.05000 162.3908 1.347944						
15.08333 162.7233 1.347787						
15.11667 163.0562 1.347604						
15.15000 163.3901 1.347756						
15.18333 163.7231 1.347740						
15.21666 164.0547 1.347540						
15.25000 164.3871 1.347447						
15.28334 164.7204 1.347385						
15.31667 165.0603 1.348147						
15.35000 165.3981 1.348907						
15.38333 165.7266 1.347752						
15.41667 166.0613 1.347533						
15.45000 166.3949 1.347885						
15.48334 166.7287 1.347745						
15.51666 167.0649 1.348017						
15.55000 167.3986 1.348132						
15.58333 167.7302 1.347700						
15.61667 168.0621 1.347582						
15.65000 168.3888 1.346982						
15.68333 168.7190 1.346826						
15.71666 169.0469 1.346188						
15.75000 169.3779 1.346166						
15.78334 169.7144 1.346784						
15.81667 170.0483 1.347045						
15.85000 170.3828 1.347052						
15.88333 170.7196 1.347319						
15.91667 171.0570 1.347638						
15.95000 171.3899 1.347308						
15.98334 171.7220 1.346962						
16.01666 172.0539 1.346880						
16.05000 172.3866 1.346837						
16.08334 172.7182 1.346681						
16.11667 173.0482 1.346306						
16.15000 173.3813 1.346214						
16.18333 173.7145 1.346398						
16.21667 174.0468 1.346195						
16.25000 174.3786 1.346184						
16.28333 174.7134 1.346204						
16.31667 175.0458 1.346349						
16.35000 175.3815 1.346496						
16.38333 175.7174 1.346720						
16.41666 176.0524 1.346701						
16.45000 176.3840 1.346417						
16.48334 176.7155 1.346054						
16.51666 177.0466 1.345864						
16.55000 177.3803 1.345984						
16.58334 177.7151 1.346008						
16.61667 178.0474 1.345994						
16.65000 178.3810 1.345928						
16.68333 178.7141 1.345956						
16.71667 179.0479 1.345805						
16.75000 179.3832 1.345940						
16.78333 179.7159 1.346062						
16.81667 180.0489 1.345756						
16.85000 180.3822 1.345771						
16.88333 180.7155 1.345691						
16.91666 181.0474 1.345766						
16.95000 181.3812 1.345523						
16.98334 181.7124 1.345383						
17.01666 182.0461 1.345329						
17.05000 182.3811 1.345455						
17.08334 182.7156 1.345681						
17.11667 183.0454 1.345152						
17.15000 183.3794 1.345242						
17.18333 183.7103 1.345098						
17.21667 184.0416 1.344802						
17.25000 184.3742 1.344828						
17.28333 184.7089 1.344957						
17.31667 185.0439 1.345005						
17.35000 185.3772 1.344905						
17.38333 185.7112 1.344914						
17.41666 186.0416 1.344525						
17.45000 186.3752 1.344434						
17.48334 186.7111 1.344783						
17.51666 187.0444 1.344810						
17.55000 187.3772 1.344621						
17.58334 187.7046 1.343956						
17.61667 188.0336 1.343389						
17.65000 188.3706 1.344086						
17.68333 188.7030 1.344237						
17.71667 189.0342 1.343690						
17.75000 189.3720 1.344319						
17.78333 189.7098 1.344705						
17.81667 190.0458 1.344718						
17.85000 190.3812 1.344816						
17.88333 190.7120 1.344198						
17.91666 191.0460 1.343994						
17.95000 191.3778 1.343919						
17.98334 191.7095 1.343732						
18.01666 192.0416 1.343607						
18.05000 192.3740 1.343554						
18.08334 192.7036 1.343157						
18.11667 193.0356 1.343132						
18.15000 193.3674 1.343105						
18.18333 193.7006 1.342889						
18.21667 194.0369 1.343226						
18.25000 194.3698 1.343420						
18.28333 194.6995 1.342750						
18.31667 195.0369 1.342958						
18.35000 195.3713 1.343280						
18.38333 195.7043 1.343044						
18.41666 196.0383 1.342953						
18.45000 196.3711 1.342782						
18.48334 196.7040 1.342712						
18.51666 197.0384 1.342541						
18.55000 197.3719 1.342863						
18.58334 197.7049 1.342601						
18.61667 198.0408 1.342852						
18.65000 198.3743 1.342829						
18.68333 198.7063 1.342283						
18.71667 199.0408 1.342498						
18.75000 199.3728 1.342382						
18.78333 199.7043 1.342053						
18.81667 200.0334 1.341714						
18.85000 200.3636 1.341320						
18.88333 200.6988 1.341578						
18.91666 201.0343 1.341940						
18.95000 201.3663 1.341739						
18.98334 201.6965 1.341351						
19.01666 202.0308 1.341389						
