CLOSED
Version	1.0
Language	English
Run	1
RunSerial	822
Instrument	TGA Q500 V6.7 Build 203
Module	TGA
InstSerial	0500-0499
Operator	at615
File	C:\TA\Data\TGA\ak794\anders\ZIF8cellulose rods sample2.001
FurnaceType	Standard
Sample	ZIF8 cellulose rods in air s2
Size	1.91300	mg
ProcName
Method	
Comment	
Xcomment	Pan: Platinum
Xcomment	Gas1: Air
Xcomment	Gas2: Air
Xcomment	Balance Gas: Air 40.0 ml/min
Xcomment	Sample Gas: Air 60.0 ml/min
Text	Cellulose rods and zif8 degradation in air. Sample 2
Kcell	1.00000
TempCal	3	pts	20.00	20.00,364.00	356.00,776.00	770.00
InstCalDate	Weight Date 2013-03-01 10:10:44
Controls	Gas 2  Event Off  Sampling 2.0
Nsig	5
Sig1	Time (min)
Sig2	Temperature (°C)
Sig3	Weight (mg)
Sig4	Balance Purge Flow (mL/min)
Sig5	Sample Purge Flow (mL/min)
AirCoolTime	20.0 min
AutoAnalysis	Off
MacroFile
Date	2013-03-11
Time	16:25:15
OrgMethod	1: Ramp 10.00 °C/min to 600.00 °C
OrgFile	C:\Users\AIM_Group\Desktop\post doc cambridge\Students files\Internships\Anders\anders tga\anders\ZIF8cellulose sponge extraction component sample2.001
7.33333E-4 18.68135 1.913044 39.98864 59.99692
0.01666667 18.69220 1.912846 39.99882 60.01804
0.05000000 18.71738 1.913158 40.00153 59.99714
0.08333334 18.76951 1.913452 40.00747 59.99682
0.1166666 18.84739 1.913960 40.00814 59.99521
0.1500000 18.94832 1.913820 39.99212 60.00051
0.1833334 19.07352 1.913978 39.98887 60.00184
0.2166667 19.21843 1.914420 40.00632 60.00403
0.2500000 19.38068 1.914537 39.99998 59.99729
0.2833333 19.55965 1.915030 39.99719 59.99532
0.3166666 19.75130 1.915140 40.00421 59.99360
0.3500000 19.95625 1.915239 40.00099 60.00544
0.3833333 20.17365 1.915365 39.99286 60.00510
0.4166666 20.40086 1.915278 40.00617 59.99268
0.4500000 20.63827 1.915839 40.01070 59.99885
0.4833333 20.88252 1.915638 39.99422 60.00579
0.5166666 21.13425 1.915935 40.01224 59.99700
0.5500000 21.39279 1.916307 39.98872 60.00516
0.5833332 21.66011 1.916475 40.00140 60.00130
0.6166668 21.93196 1.916540 40.00092 59.99304
0.6500000 22.21018 1.915949 40.00460 60.01016
0.6833334 22.49217 1.916435 39.98042 59.99592
0.7166666 22.78004 1.916592 40.02072 59.99800
0.7500000 23.07096 1.916762 39.98675 59.99328
0.7833334 23.36688 1.916526 39.99230 60.00566
0.8166668 23.66451 1.916522 40.00821 59.99766
0.8500000 23.96741 1.916628 40.00324 60.00086
0.8833332 24.27332 1.916205 39.99640 60.00792
0.9166668 24.58045 1.916247 39.99620 59.99296
0.9500000 24.89108 1.916237 40.00004 59.99887
0.9833334 25.20348 1.916375 40.00857 59.99998
1.016667 25.51800 1.916466 39.99185 60.00562
1.050000 25.83334 1.916236 40.00556 59.99510
1.083334 26.14979 1.916341 40.00607 59.99878
1.116667 26.46785 1.916390 40.00040 60.00815
1.150000 26.78790 1.916444 39.99135 59.99636
1.183333 27.10758 1.916395 40.00975 59.99898
1.216667 27.42956 1.916361 39.99475 59.99947
1.250000 27.75175 1.916409 39.99850 60.00209
1.283333 28.07438 1.916156 39.99938 59.99539
1.316667 28.39818 1.915618 40.00630 60.00816
1.350000 28.72172 1.915238 39.98973 59.99951
1.383333 29.04496 1.915166 40.00978 59.99244
1.416666 29.37095 1.915261 39.99280 60.00951
1.450000 29.69389 1.914914 40.00542 59.99360
1.483334 30.01756 1.915042 39.99234 60.00500
1.516666 30.34208 1.916124 39.99641 59.99554
1.550000 30.66706 1.916077 40.00033 60.00014
1.583334 30.99260 1.916075 40.00774 59.99208
1.616666 31.31583 1.915784 39.99806 60.00368
1.650000 31.64061 1.915732 39.99480 59.99511
1.683333 31.96485 1.915759 40.01139 60.00408
1.716667 32.28928 1.915812 39.99478 60.00289
1.750000 32.61284 1.915870 39.99344 60.00376
1.783333 32.93561 1.916324 40.00383 59.99354
1.816667 33.25962 1.916663 40.00694 60.01072
1.850000 33.58320 1.916407 39.99036 59.99540
1.883334 33.90675 1.916218 40.00420 60.00276
1.916666 34.22986 1.916058 39.99690 59.99418
1.950000 34.55294 1.915973 40.00388 60.00570
1.983334 34.87558 1.916297 39.99082 59.99600
2.016666 35.19780 1.915942 40.00481 59.99963
2.050000 35.51979 1.915834 40.00228 59.99814
2.083333 35.84278 1.915742 39.99619 60.00520
2.116666 36.16517 1.915586 40.00452 59.98884
2.150000 36.48760 1.915527 40.00100 60.00459
2.183334 36.81004 1.915469 40.00098 59.99540
2.216667 37.13243 1.915369 39.99366 60.00928
2.250000 37.45329 1.915422 40.00609 59.99532
2.283333 37.77485 1.915529 40.00076 59.99812
2.316666 38.09668 1.915486 39.99346 59.99912
2.350000 38.41922 1.915349 40.00510 60.00076
2.383334 38.74226 1.915338 39.99868 60.00864
2.416667 39.06276 1.915262 40.00575 59.99541
2.450000 39.38490 1.915189 39.99859 59.99170
2.483334 39.70750 1.915046 39.99613 60.02601
2.516666 40.03094 1.914951 39.99557 59.98099
2.550000 40.35218 1.914997 40.00563 60.00540
2.583333 40.67500 1.915046 39.99448 59.98934
2.616666 40.99662 1.915209 40.00308 60.01494
2.650000 41.31955 1.915053 40.00364 59.99620
2.683334 41.64120 1.914887 40.00059 59.99414
2.716667 41.96534 1.914840 39.99705 59.99724
2.750000 42.28764 1.914690 39.99414 60.01092
2.783333 42.61048 1.914516 40.00030 59.99287
2.816666 42.93329 1.914744 40.00076 60.00451
2.850000 43.25660 1.914943 40.00412 59.99840
2.883334 43.58116 1.914694 39.99990 59.99403
2.916667 43.90389 1.914564 40.00563 59.99798
2.950000 44.22895 1.914729 39.99665 60.00948
2.983334 44.55373 1.914715 39.99234 59.98984
3.016666 44.87828 1.914784 40.00096 60.01485
3.050000 45.20164 1.914430 40.00614 59.99184
3.083333 45.52610 1.914420 39.99980 60.00004
3.116666 45.84988 1.914386 40.00170 60.00202
3.150000 46.17556 1.914198 39.98868 60.00092
3.183334 46.50064 1.914306 40.00666 59.99670
3.216667 46.82596 1.914454 39.99908 60.00166
3.250000 47.15210 1.914435 39.99955 60.00088
3.283333 47.47803 1.914294 40.00736 59.98933
3.316666 47.80295 1.914065 39.99613 60.00330
3.350000 48.12930 1.914059 40.00305 60.00102
3.383334 48.45634 1.914142 40.00260 60.00488
3.416667 48.78182 1.914127 39.98978 59.99394
3.450000 49.10954 1.914019 40.00170 60.00634
3.483333 49.43566 1.913879 39.99774 60.00032
3.516667 49.76300 1.913856 40.00832 60.00746
3.550000 50.08890 1.913778 40.00221 59.98745
3.583333 50.41597 1.913572 39.99005 60.01415
3.616666 50.74484 1.913956 40.00739 59.98548
3.650000 51.07358 1.914042 39.99075 60.00335
3.683334 51.40044 1.913694 39.99870 60.00606
3.716667 51.72844 1.913622 40.00394 60.00054
3.750000 52.05758 1.913628 40.00031 59.99050
3.783333 52.38506 1.913556 39.99600 60.00463
3.816666 52.71285 1.913527 40.00368 59.99885
3.850000 53.04290 1.913498 40.00446 59.99703
3.883334 53.37178 1.913350 40.00576 60.01110
3.916667 53.70029 1.913807 39.99578 59.98550
3.950000 54.03092 1.913606 39.99536 60.02119
3.983333 54.35950 1.913281 40.00048 59.98069
4.016667 54.68878 1.912598 40.00739 60.00622
4.050000 55.01771 1.912447 40.00144 59.99889
4.083334 55.34812 1.912661 39.99248 59.99822
4.116667 55.67870 1.912726 39.99864 60.00460
4.150000 56.00795 1.912553 39.99477 59.99420
4.183334 56.33774 1.912687 40.01002 59.99652
4.216667 56.66761 1.912708 39.99867 60.00644
4.250000 56.99824 1.912373 40.00113 60.00292
4.283333 57.32837 1.912280 39.99213 59.99502
4.316666 57.65863 1.912361 40.00030 59.99610
4.350000 57.98915 1.912175 40.00864 60.00124
4.383333 58.31982 1.912092 40.00384 59.99851
4.416666 58.65210 1.912237 40.00182 60.00910
4.450000 58.98296 1.912145 39.99105 60.00285
4.483333 59.31456 1.912054 40.00015 59.98987
4.516667 59.64660 1.912144 40.00175 59.99906
4.550000 59.97716 1.911816 39.99002 60.01976
4.583334 60.30980 1.912020 40.01750 59.98188
4.616667 60.64106 1.911976 39.98401 60.00600
4.650000 60.97355 1.911619 40.01328 59.98826
4.683334 61.30391 1.911420 39.98488 60.00576
4.716667 61.63554 1.911435 40.01147 59.99741
4.750000 61.96756 1.911362 39.98994 60.01042
4.783333 62.29730 1.911260 40.01261 60.00137
4.816666 62.62980 1.911155 39.99944 59.98445
4.850000 62.96151 1.911004 39.98613 60.00691
4.883333 63.29312 1.911022 40.00993 60.00079
4.916666 63.62550 1.910880 39.99995 60.00672
4.950000 63.95810 1.910996 40.00340 59.99769
4.983333 64.29210 1.911142 39.99755 59.99768
5.016667 64.62494 1.911198 39.99272 60.00050
5.050000 64.95688 1.911016 40.00005 60.00378
5.083334 65.28894 1.910640 39.99794 59.99982
5.116667 65.62068 1.910317 40.00966 60.00355
5.150000 65.95197 1.910103 40.00551 59.99230
5.183334 66.28530 1.909924 39.99104 59.99817
5.216667 66.61780 1.909890 39.98846 60.01161
5.250000 66.94932 1.909786 40.00540 59.99459
5.283332 67.28231 1.909804 39.99751 59.99924
5.316666 67.61578 1.909728 40.00531 59.99646
5.350000 67.94946 1.909660 39.99844 59.99416
5.383332 68.28124 1.909425 40.01578 60.00822
5.416666 68.61444 1.909211 39.99162 59.99946
5.450000 68.94819 1.909438 40.00086 60.00108
5.483332 69.28161 1.909548 39.99544 60.00085
5.516668 69.61389 1.909116 40.00183 59.99477
5.550000 69.94605 1.908922 39.99840 60.00479
5.583334 70.27819 1.908734 40.00344 59.99454
5.616668 70.61095 1.908499 40.00458 59.99911
5.650000 70.94312 1.908132 39.99974 60.00361
5.683334 71.27651 1.907986 39.98800 59.99045
5.716668 71.61060 1.908092 40.01197 60.01110
5.750000 71.94547 1.908233 39.99519 59.98840
5.783332 72.27955 1.908241 39.99547 60.01452
5.816666 72.61360 1.908002 39.99923 60.00476
5.850000 72.94701 1.907750 40.02293 59.98170
5.883332 73.28144 1.907436 39.99014 60.01146
5.916666 73.61481 1.907140 39.99508 59.99942
5.950000 73.94860 1.906994 40.01018 59.99080
5.983332 74.28318 1.906803 39.98119 60.00750
6.016668 74.61728 1.906568 40.01057 59.99568
6.050000 74.95024 1.906156 39.98906 60.00622
6.083334 75.28507 1.905870 40.01558 59.99098
6.116668 75.61915 1.905889 39.99795 60.00750
6.150000 75.95474 1.905995 40.00156 59.98759
6.183334 76.28912 1.906183 39.99514 60.00348
6.216668 76.62518 1.905956 39.99762 59.99943
6.250000 76.95813 1.905291 39.98862 60.00522
6.283332 77.29147 1.904836 40.00276 60.00370
6.316666 77.62670 1.904955 39.99470 60.00870
6.350000 77.96206 1.905268 40.00041 59.99468
6.383332 78.29452 1.904507 39.99928 59.99594
6.416666 78.62818 1.904221 40.02369 59.99238
6.450000 78.96248 1.903942 39.99710 60.00468
6.483332 79.29693 1.903934 39.99960 59.99384
6.516668 79.62955 1.903431 39.98458 60.00356
6.550000 79.96331 1.903289 40.00933 60.00186
6.583334 80.29834 1.903344 39.98758 59.99972
6.616668 80.63048 1.902676 40.01621 59.99641
6.650000 80.96582 1.902467 40.00506 60.00506
6.683334 81.29876 1.902272 39.98856 59.99668
6.716666 81.63253 1.901896 40.00343 60.00846
6.750000 81.96726 1.901660 40.00363 59.99865
6.783334 82.30010 1.901511 39.98294 59.99480
6.816666 82.63426 1.901170 40.01100 60.00426
6.850000 82.96766 1.900606 39.99866 59.99841
6.883332 83.30074 1.900170 39.99688 60.00165
6.916666 83.63422 1.899948 40.00796 59.99880
6.950000 83.96866 1.899726 39.99922 60.00237
6.983332 84.30219 1.899676 39.99042 60.00280
7.016668 84.63632 1.899475 39.99903 60.00238
7.050000 84.97031 1.899156 40.00522 59.99218
7.083334 85.30322 1.898568 40.00288 60.00105
7.116668 85.63631 1.898100 39.99770 60.00566
7.150000 85.97036 1.897665 39.99732 59.99695
7.183334 86.30316 1.897391 40.01072 59.99506
7.216666 86.63702 1.897156 39.98903 60.01026
7.250000 86.97071 1.896551 40.00574 59.99033
7.283334 87.30311 1.896102 39.99468 60.00175
7.316666 87.63639 1.895676 39.99561 60.00537
7.350000 87.96972 1.895036 40.01341 59.98821
7.383332 88.30274 1.894434 39.98914 60.00704
7.416666 88.63576 1.893971 40.00886 59.99828
7.450000 88.96825 1.893565 39.99844 60.00702
7.483332 89.30132 1.893078 39.99431 59.99437
7.516668 89.63515 1.893019 40.00307 59.99834
7.550000 89.96982 1.892612 40.00647 59.99825
7.583334 90.30226 1.891911 39.99894 59.99892
7.616668 90.63732 1.891574 39.99918 60.00514
7.650000 90.97075 1.891067 39.99237 60.00122
7.683334 91.30285 1.890425 39.99868 59.99272
7.716666 91.63437 1.889539 40.00871 60.01050
7.750000 91.96766 1.888674 40.00025 59.98965
7.783334 92.30038 1.888246 40.00015 60.00112
7.816666 92.63312 1.887694 39.99252 60.00950
7.850000 92.96660 1.887314 39.99789 59.99144
7.883332 93.30191 1.886932 40.01036 60.00469
7.916666 93.63672 1.886306 40.00379 60.00522
7.950000 93.96991 1.885624 39.99600 59.99165
7.983332 94.30536 1.885125 39.98984 60.00332
8.016666 94.63797 1.884188 40.00016 59.99250
8.050000 94.96988 1.883028 39.99775 60.00112
8.083332 95.30158 1.882049 40.00895 60.00828
8.116668 95.63324 1.881304 39.99092 59.99230
8.150000 95.96708 1.880732 40.00344 60.00222
8.183334 96.30066 1.880387 40.00309 59.99972
8.216666 96.63759 1.880337 40.00334 60.00193
8.250000 96.97285 1.879441 39.99933 60.00544
8.283334 97.30639 1.878200 39.99990 59.99200
8.316666 97.64018 1.877489 39.99382 60.00424
8.350000 97.97381 1.876599 40.00025 60.00206
8.383332 98.30899 1.875829 40.00595 60.00460
8.416668 98.64124 1.874716 40.00534 59.99094
8.450000 98.97251 1.873544 39.99310 60.00224
8.483334 99.30434 1.872388 40.00117 59.99688
8.516666 99.63768 1.871642 40.00189 59.99459
8.550000 99.97046 1.870792 40.00035 60.00505
8.583332 100.3041 1.869936 40.00552 59.99982
8.616668 100.6370 1.868995 39.99304 60.01142
8.650000 100.9713 1.867998 39.99538 59.98761
8.683334 101.3048 1.866991 40.00246 60.01055
8.716666 101.6378 1.865761 40.00171 59.98736
8.750000 101.9692 1.864434 40.00304 60.00010
8.783334 102.3052 1.863809 39.99443 60.01121
8.816666 102.6391 1.863016 39.99931 59.99891
8.850000 102.9726 1.861705 40.00769 59.98970
8.883332 103.3034 1.860289 39.99942 60.00352
8.916668 103.6380 1.858986 39.99530 60.01014
8.950000 103.9693 1.857878 40.00366 59.98856
8.983334 104.3035 1.856750 40.00071 60.00146
9.016666 104.6373 1.855352 39.99448 59.99633
9.050000 104.9701 1.854208 39.99953 60.01024
9.083332 105.3018 1.852850 39.99926 59.98608
9.116668 105.6351 1.851470 39.99948 60.01124
9.150000 105.9681 1.850337 40.00774 59.99609
9.183334 106.3001 1.848950 39.99344 60.00014
9.216666 106.6336 1.848035 39.99482 60.00466
9.250000 106.9680 1.846424 40.00216 59.99070
9.283334 107.3013 1.845107 40.01116 60.00699
9.316666 107.6353 1.843721 39.99072 60.00084
9.350000 107.9681 1.842017 40.00802 60.00200
9.383332 108.2989 1.840326 39.99912 60.00112
9.416668 108.6330 1.839093 40.00268 59.99234
9.450000 108.9658 1.837567 39.99204 60.00717
9.483334 109.2972 1.835703 40.01226 59.98988
9.516666 109.6295 1.834115 39.98250 59.99877
9.550000 109.9631 1.832634 40.01019 60.00930
9.583332 110.2978 1.831479 39.98786 59.99737
9.616668 110.6339 1.830112 39.99714 59.99841
9.650000 110.9661 1.828108 40.00162 60.00212
9.683334 111.2990 1.826537 40.01541 59.99551
9.716666 111.6336 1.825282 39.98822 59.99854
9.750000 111.9664 1.823202 40.01365 60.00238
9.783334 112.2998 1.821411 39.99666 60.00066
9.816666 112.6334 1.820078 39.97821 60.00316
9.850000 112.9685 1.818640 40.01828 60.00486
9.883332 113.3004 1.816134 39.99402 59.99600
9.916668 113.6314 1.813730 39.99521 59.98620
9.950000 113.9632 1.811880 40.01022 60.02324
9.983334 114.2948 1.810151 40.01160 59.98426
10.01667 114.6277 1.808430 39.98322 59.99749
10.05000 114.9616 1.806851 40.01659 60.00074
10.08333 115.2987 1.805330 39.98238 60.01382
10.11667 115.6333 1.803446 40.01462 59.99930
10.15000 115.9663 1.801368 39.98166 59.98162
10.18333 116.3002 1.799101 40.00922 60.01144
10.21667 116.6338 1.796894 39.98968 59.99584
10.25000 116.9659 1.794891 40.01570 60.00658
10.28333 117.2998 1.792758 39.99778 59.99541
10.31667 117.6332 1.790596 39.99833 60.01361
10.35000 117.9679 1.788602 39.99369 59.99149
10.38333 118.2982 1.786265 40.00084 59.99848
10.41667 118.6311 1.784218 39.99660 59.99973
10.45000 118.9638 1.781972 39.99956 59.99541
10.48333 119.2952 1.779738 40.01085 60.01098
10.51666 119.6291 1.777848 40.00232 59.98557
10.55000 119.9611 1.775694 39.99582 60.01645
10.58333 120.2938 1.773174 39.99561 59.98832
10.61667 120.6271 1.771092 39.99617 59.99570
10.65000 120.9615 1.769129 40.00860 60.01466
10.68334 121.2940 1.767067 39.99999 59.99705
10.71666 121.6285 1.764834 39.99999 59.99934
10.75000 121.9640 1.763244 39.99422 60.00066
10.78334 122.2987 1.761162 40.01245 59.98650
10.81666 122.6299 1.758334 39.98798 60.00479
10.85000 122.9612 1.756021 40.01132 60.00117
10.88333 123.2971 1.754795 39.98979 60.00660
10.91667 123.6329 1.752878 40.00308 59.99639
10.95000 123.9635 1.750136 39.99996 59.99844
10.98334 124.2948 1.747923 39.99736 60.00264
11.01666 124.6299 1.746539 39.99798 59.99750
11.05000 124.9628 1.744641 40.00214 59.99720
11.08333 125.2970 1.742813 39.99989 60.00103
11.11667 125.6337 1.741617 40.00478 59.99691
11.15000 125.9679 1.739582 39.99460 60.00769
11.18334 126.2989 1.737204 40.01746 60.00560
11.21666 126.6289 1.734866 39.98839 60.00270
11.25000 126.9606 1.733185 39.99365 59.98886
11.28334 127.2947 1.731833 40.00455 60.00992
11.31666 127.6308 1.730919 40.00456 59.99316
11.35000 127.9608 1.728488 39.99727 59.99470
11.38333 128.2914 1.726436 40.00549 60.00590
11.41667 128.6239 1.725283 39.98694 59.99644
11.45000 128.9604 1.724396 40.00561 59.99912
11.48334 129.2966 1.723534 39.99609 59.99956
11.51666 129.6341 1.722696 40.00868 60.00566
11.55000 129.9705 1.721361 39.99950 59.99166
11.58333 130.2990 1.719002 39.99040 60.01116
11.61667 130.6307 1.717783 40.00319 59.99410
11.65000 130.9651 1.716984 40.00094 60.00360
11.68334 131.2969 1.715534 40.00447 60.00702
11.71666 131.6310 1.714655 39.99980 59.99125
11.75000 131.9654 1.713918 39.99844 59.99973
11.78334 132.3000 1.713375 40.00105 60.00117
11.81666 132.6369 1.712951 39.99510 60.00219
11.85000 132.9692 1.711512 39.99710 59.99253
11.88333 133.2977 1.709367 39.99906 60.01020
11.91667 133.6304 1.709125 40.01237 59.98996
11.95000 133.9627 1.708578 39.99560 60.00863
11.98334 134.2961 1.707908 39.99762 59.99429
12.01666 134.6281 1.707009 39.99547 60.00634
12.05000 134.9588 1.705899 40.00300 59.98700
12.08333 135.2959 1.706354 40.00647 60.01592
12.11667 135.6298 1.705646 40.00067 59.98968
12.15000 135.9652 1.705324 39.99630 60.00480
12.18334 136.2978 1.704455 39.99434 59.99945
12.21666 136.6266 1.703188 40.01070 59.99932
12.25000 136.9616 1.703353 39.99627 60.00286
12.28334 137.2996 1.703833 39.98612 59.98344
12.31666 137.6352 1.703528 40.00810 60.01218
12.35000 137.9681 1.702916 40.00693 59.99855
12.38333 138.2992 1.702087 39.99206 60.00020
12.41667 138.6319 1.701753 40.00403 60.00497
12.45000 138.9666 1.701889 40.00215 59.99316
12.48334 139.3004 1.701691 39.99934 60.00988
12.51666 139.6318 1.701040 39.98597 59.98296
12.55000 139.9629 1.700466 40.01944 60.01818
12.58333 140.2954 1.700418 40.00005 59.98282
12.61667 140.6304 1.700728 39.98081 60.00545
12.65000 140.9646 1.700745 40.01694 60.00390
12.68334 141.3023 1.701135 39.99148 59.99625
12.71666 141.6362 1.700714 40.00378 60.00545
12.75000 141.9689 1.700098 39.99946 59.99594
12.78334 142.3026 1.699847 39.99710 60.00729
12.81667 142.6360 1.699927 39.99054 59.98566
12.85000 142.9675 1.699418 39.99967 59.99737
12.88333 143.2999 1.699188 40.02192 60.02027
12.91667 143.6305 1.698623 39.99738 59.98734
12.95000 143.9625 1.698394 39.98524 60.00460
12.98334 144.2938 1.698223 40.00425 59.99239
13.01666 144.6284 1.698636 40.00035 60.00544
13.05000 144.9629 1.698695 39.98809 59.99365
13.08333 145.2950 1.698034 40.01782 60.00635
13.11667 145.6298 1.698422 40.00784 59.99800
13.15000 145.9688 1.699064 39.98056 59.99722
13.18333 146.3008 1.698604 40.00770 60.00302
13.21666 146.6320 1.697826 40.00220 60.01100
13.25000 146.9657 1.698056 40.00252 59.99876
13.28334 147.2996 1.698109 39.99271 59.98891
13.31667 147.6317 1.697906 40.02060 60.00051
13.35000 147.9642 1.697476 39.98062 59.99735
13.38333 148.2940 1.697002 40.00652 60.00326
13.41667 148.6278 1.697242 39.99284 59.99598
13.45000 148.9626 1.697558 40.00482 60.00821
13.48334 149.2987 1.697993 39.99988 59.99710
13.51666 149.6324 1.697634 39.99447 60.00111
13.55000 149.9660 1.697632 40.00485 60.00387
13.58333 150.3008 1.697525 39.99929 59.99002
13.61667 150.6326 1.697194 39.99770 60.00419
13.65000 150.9632 1.696833 39.99961 60.00615
13.68333 151.2956 1.696681 40.00076 60.00309
13.71666 151.6269 1.696489 39.99985 59.99930
13.75000 151.9566 1.696015 40.00434 59.98824
13.78334 152.2870 1.695727 39.99805 60.01048
13.81667 152.6215 1.696097 39.99725 59.99984
13.85000 152.9614 1.697401 40.00600 59.99321
13.88333 153.2981 1.697590 39.99526 60.00532
13.91667 153.6305 1.696732 40.00220 59.98846
13.95000 153.9631 1.696289 40.00388 59.99930
