CLOSED
Version	1.0
Language	English
Run	1
RunSerial	821
Instrument	TGA Q500 V6.7 Build 203
Module	TGA
InstSerial	0500-0499
Operator	at615
File	C:\TA\Data\TGA\ak794\anders\ZIF8cellulosesponge1.001
FurnaceType	Standard
Sample	ZIF8 cellulose sponge in air 1
Size	5.56500	mg
ProcName
Method	
Comment	
Xcomment	Pan: Platinum
Xcomment	Gas1: Air
Xcomment	Gas2: Air
Xcomment	Balance Gas: Air 40.0 ml/min
Xcomment	Sample Gas: Air 60.0 ml/min
Text	Cellulose sponge and zif8 degradation in air
Kcell	1.00000
TempCal	3	pts	20.00	20.00,364.00	356.00,776.00	770.00
InstCalDate	Weight Date 2013-03-01 10:10:44
Controls	Gas 2  Event Off  Sampling 2.0
Nsig	5
Sig1	Time (min)
Sig2	Temperature (°C)
Sig3	Weight (mg)
Sig4	Balance Purge Flow (mL/min)
Sig5	Sample Purge Flow (mL/min)
AirCoolTime	20.0 min
AutoAnalysis	Off
MacroFile
Date	2013-03-11
Time	13:44:24
OrgMethod	1: Ramp 10.00 °C/min to 600.00 °C
OrgFile	C:\Users\AIM_Group\Desktop\post doc cambridge\Students files\Internships\Anders\anders tga\anders\ZIF8cellulosesponge sample 1.001
.001116667 17.77372 5.565514 40.00012 60.00007
0.01666667 17.78175 5.565050 40.00084 60.00713
0.05000000 17.80943 5.564350 39.99631 59.99060
0.08333334 17.86082 5.565111 39.98916 60.00380
0.1166666 17.94139 5.564332 40.00913 59.99318
0.1500000 18.04581 5.563663 40.00936 59.99555
0.1833334 18.17238 5.563886 39.98192 60.01526
0.2166667 18.31864 5.563582 40.01675 59.99197
0.2500000 18.48250 5.562230 39.99761 60.00830
0.2833333 18.66335 5.561826 39.98306 59.99429
0.3166666 18.85794 5.561711 40.00238 60.00250
0.3500000 19.06499 5.561269 40.01736 60.00576
0.3833333 19.28150 5.560813 39.98317 59.99638
0.4166666 19.51164 5.560121 40.01721 59.99044
0.4500000 19.74898 5.559549 39.97790 60.01428
0.4833333 19.99469 5.558926 40.02076 59.98938
0.5166666 20.24968 5.557930 39.99712 59.99256
0.5500000 20.50963 5.557342 40.00324 59.99969
0.5833332 20.77583 5.557201 39.98164 60.01944
0.6166668 21.05084 5.556287 40.00170 59.99676
0.6500000 21.32893 5.555896 40.00752 59.99500
0.6833334 21.61418 5.555236 40.00048 60.00850
0.7166666 21.90124 5.554429 40.00765 59.98238
0.7500000 22.19432 5.553803 39.99830 60.01376
0.7833334 22.49024 5.553132 39.98710 59.99946
0.8166668 22.79062 5.552406 40.01215 59.98945
0.8500000 23.09453 5.551607 39.99658 59.99945
0.8833332 23.40106 5.550778 40.00372 60.00395
0.9166668 23.70913 5.550338 39.99102 60.01016
0.9500000 24.02058 5.550049 40.00548 59.98590
0.9833334 24.33256 5.549443 40.00294 60.01146
1.016667 24.64798 5.548297 40.00150 59.98972
1.050000 24.96567 5.546976 39.99810 59.99800
1.083334 25.28336 5.546023 39.99618 60.00572
1.116667 25.60343 5.545135 40.00120 59.99708
1.150000 25.92456 5.544884 39.99038 60.01065
1.183333 26.24602 5.544495 40.01191 59.99403
1.216667 26.56818 5.544068 39.99425 60.01178
1.250000 26.88994 5.543004 40.01150 59.98406
1.283333 27.21241 5.542436 39.99332 59.99842
1.316667 27.53656 5.541298 39.99997 60.00239
1.350000 27.85965 5.540440 39.99193 60.00879
1.383333 28.18516 5.540095 40.00162 59.99150
1.416666 28.50882 5.539082 40.00056 60.00459
1.450000 28.83330 5.538472 40.00776 60.00092
1.483334 29.15779 5.537617 39.99969 59.99343
1.516666 29.48340 5.536485 39.99025 60.00922
1.550000 29.80665 5.535877 40.00672 59.99620
1.583334 30.13295 5.535164 39.99460 60.00219
1.616666 30.45691 5.534320 40.00424 59.99479
1.650000 30.78115 5.533544 40.00237 60.00230
1.683333 31.10476 5.533028 39.99510 60.00080
1.716667 31.42896 5.532774 40.00112 60.00594
1.750000 31.75260 5.532144 40.00580 59.98934
1.783333 32.07725 5.531526 40.00235 60.00176
1.816667 32.40106 5.530818 39.99355 60.00810
1.850000 32.72429 5.529781 40.00668 59.99074
1.883334 33.04635 5.528884 39.99104 59.99785
1.916666 33.37052 5.528402 40.00364 60.00766
1.950000 33.69185 5.527695 39.98984 59.99746
1.983334 34.01523 5.526850 40.01200 59.99098
2.016666 34.33760 5.526295 39.99166 60.01106
2.050000 34.66000 5.525300 39.99791 60.00857
2.083333 34.98087 5.524532 40.00456 59.98759
2.116666 35.30414 5.523936 39.99848 60.00490
2.150000 35.62633 5.523680 40.00240 60.00110
2.183334 35.94872 5.523444 40.00552 59.99814
2.216667 36.27094 5.522787 39.99788 59.99780
2.250000 36.59296 5.522248 39.99799 60.00377
2.283333 36.91519 5.521739 40.00456 59.99484
2.316666 37.23584 5.521143 39.99872 59.99340
2.350000 37.55948 5.520536 39.98727 60.00347
2.383334 37.87900 5.519911 40.01864 60.00921
2.416667 38.20196 5.519363 39.99332 59.98774
2.450000 38.52340 5.518925 39.99411 60.00838
2.483334 38.84410 5.518472 40.00820 59.99072
2.516666 39.16700 5.517921 40.00269 60.00376
2.550000 39.48971 5.517373 39.99714 60.02227
2.583333 39.81291 5.516708 39.99655 59.98414
2.616666 40.13348 5.516349 39.99369 60.00210
2.650000 40.45702 5.516059 40.00464 59.99039
2.683334 40.78006 5.515510 40.00366 59.99590
2.716667 41.10354 5.515046 40.00302 60.00416
2.750000 41.42567 5.514543 39.99856 60.00539
2.783333 41.74934 5.514111 39.99103 59.98870
2.816666 42.07258 5.513734 39.99880 60.01560
2.850000 42.39584 5.513369 40.01063 59.99001
2.883334 42.71902 5.513012 39.99794 59.99666
2.916667 43.04227 5.512737 40.00216 60.00289
2.950000 43.36584 5.512352 39.99072 60.00946
2.983334 43.69052 5.511778 40.01361 59.98956
3.016666 44.01528 5.511204 39.97625 60.01548
3.050000 44.33859 5.510680 40.00500 59.99853
3.083333 44.66361 5.510224 39.99866 59.99032
3.116666 44.98838 5.509930 40.01002 59.99634
3.150000 45.31291 5.509639 40.00480 60.00590
3.183334 45.63835 5.509290 39.98355 60.00952
3.216667 45.96372 5.508831 40.01836 60.00031
3.250000 46.28994 5.508824 40.00208 59.98848
3.283333 46.61608 5.508906 40.00113 60.00672
3.316666 46.94169 5.508522 39.98588 60.00343
3.350000 47.26758 5.508049 39.99376 59.99668
3.383334 47.59439 5.507766 40.02041 59.98894
3.416667 47.92008 5.507392 40.00008 59.99491
3.450000 48.24666 5.507074 39.99924 60.00891
3.483333 48.57302 5.506529 39.97890 60.00940
3.516667 48.89981 5.506250 40.00730 59.99560
3.550000 49.22656 5.505957 40.00197 59.99138
3.583333 49.55628 5.505503 40.00325 60.00242
3.616666 49.88233 5.505222 39.99624 60.01404
3.650000 50.21028 5.504800 40.00914 59.98438
3.683334 50.53842 5.504700 39.98735 60.00660
3.716667 50.86660 5.504350 40.00319 59.98723
3.750000 51.19363 5.503968 40.00527 60.00220
3.783333 51.52272 5.503693 39.99846 60.00644
3.816666 51.85166 5.503434 39.99752 59.99120
3.850000 52.17954 5.503175 40.00447 60.01584
3.883334 52.50954 5.503010 39.99648 59.99430
3.916667 52.83829 5.502884 40.00560 60.00121
3.950000 53.16846 5.503280 39.99110 59.99780
3.983333 53.49970 5.503374 40.00306 60.00814
4.016667 53.82900 5.502979 40.00602 59.99490
4.050000 54.15729 5.502074 39.98960 60.00149
4.083334 54.48599 5.501906 40.00646 59.99770
4.116667 54.81761 5.501694 40.00116 60.00540
4.150000 55.14826 5.501574 39.99280 59.99726
4.183334 55.47683 5.501331 40.01058 59.99154
4.216667 55.80660 5.501052 39.99764 60.00168
4.250000 56.13820 5.500662 39.99232 60.00701
4.283333 56.46709 5.500284 40.01495 60.00620
4.316666 56.79720 5.500063 39.98606 59.98688
4.350000 57.12816 5.499785 40.00196 60.00642
4.383333 57.45826 5.499794 39.99581 59.99600
4.416666 57.79100 5.499734 40.00150 60.00004
4.450000 58.12193 5.499458 39.99794 60.00416
4.483333 58.45250 5.499117 39.99826 59.99490
4.516667 58.78371 5.498730 39.99768 59.99962
4.550000 59.11516 5.498608 40.00342 59.99594
4.583334 59.44668 5.498738 40.00387 60.00298
4.616667 59.77921 5.498533 39.99915 60.01135
4.650000 60.11028 5.498004 40.01250 59.99090
4.683334 60.44307 5.497994 39.99206 60.00620
4.716667 60.77574 5.498180 40.00223 59.98524
4.750000 61.10608 5.497736 40.00082 60.00213
4.783333 61.43882 5.497521 39.99161 60.01228
4.816666 61.77119 5.497226 40.00133 59.99755
4.850000 62.10262 5.497182 40.00642 59.99324
4.883333 62.43444 5.496871 40.00148 60.00754
4.916666 62.76687 5.496557 39.99309 59.99563
4.950000 63.09814 5.496550 40.00787 60.00432
4.983333 63.43086 5.496050 39.99998 60.00085
5.016667 63.76407 5.496353 39.99830 59.99594
5.050000 64.09626 5.496318 39.99334 59.99580
5.083334 64.42957 5.495895 40.00402 60.00489
5.116667 64.76285 5.495722 40.00053 59.99922
5.150000 65.09405 5.495363 39.99363 59.99718
5.183334 65.42628 5.495045 40.00680 60.00651
5.216667 65.75812 5.494992 39.99976 59.99932
5.250000 66.09245 5.494859 39.99498 59.99970
5.283332 66.42450 5.494511 40.00502 59.98831
5.316666 66.75658 5.494143 39.99756 60.01498
5.350000 67.08868 5.494090 39.99838 59.98876
5.383332 67.42296 5.494234 40.00350 60.00533
5.416666 67.75679 5.494186 39.99484 60.00478
5.450000 68.08954 5.493900 40.00022 60.00016
5.483332 68.42188 5.493429 39.99948 59.99312
5.516668 68.75396 5.493038 40.00206 60.00603
5.550000 69.08687 5.492978 40.00045 59.99180
5.583334 69.42224 5.493345 40.00408 60.00842
5.616668 69.75647 5.493277 40.00235 60.00245
5.650000 70.09003 5.493046 39.99980 59.99470
5.683334 70.42274 5.492516 39.99928 60.00344
5.716668 70.75528 5.491894 39.99242 59.99314
5.750000 71.08768 5.491615 39.99782 59.99446
5.783332 71.42068 5.491765 40.00862 60.00630
5.816666 71.75476 5.491734 39.99728 59.99540
5.850000 72.08921 5.491428 39.99667 60.01822
5.883332 72.42155 5.490920 40.00676 59.98364
5.916666 72.75537 5.490856 40.00048 60.00579
5.950000 73.08918 5.491201 39.99172 60.00340
5.983332 73.42490 5.491390 40.00124 59.99887
6.016668 73.75724 5.490746 40.00432 60.00190
6.050000 74.09050 5.490144 40.00466 59.99922
6.083334 74.42369 5.489979 39.98937 60.00090
6.116668 74.75740 5.489998 40.00634 59.99834
6.150000 75.09086 5.489292 40.00302 59.99465
6.183334 75.42194 5.488819 39.99736 59.99966
6.216668 75.75550 5.488899 39.99016 59.99810
6.250000 76.08690 5.488128 40.00300 60.00710
6.283332 76.42072 5.488055 40.01056 60.00515
6.316666 76.75601 5.488256 40.00072 59.98924
6.350000 77.08931 5.488010 39.99305 59.99820
6.383332 77.42221 5.487451 39.99610 59.99989
6.416666 77.75534 5.487190 40.00469 60.01085
6.450000 78.08936 5.487280 39.99584 59.99824
6.483332 78.42362 5.487050 39.99984 59.99672
6.516668 78.75735 5.486688 40.00190 60.00225
6.550000 79.09094 5.486437 40.00392 59.99250
6.583334 79.42494 5.486118 39.99823 60.01006
6.616668 79.75903 5.485848 40.00630 59.99756
6.650000 80.09270 5.485908 39.98404 59.99560
6.683334 80.42656 5.485446 39.99887 60.01050
6.716666 80.76126 5.485489 40.00946 59.98484
6.750000 81.09392 5.484716 39.99387 60.01408
6.783334 81.42786 5.484585 40.01567 59.98776
6.816666 81.76151 5.484468 39.97922 59.99711
6.850000 82.09566 5.484000 40.02146 60.00800
6.883332 82.42892 5.483606 39.99205 59.99490
6.916666 82.76100 5.482919 40.00852 60.00706
6.950000 83.09184 5.482331 39.98015 59.98791
6.983332 83.42613 5.482144 40.01989 60.01702
7.016668 83.76030 5.482166 39.99712 59.97951
7.050000 84.09449 5.481984 39.98610 60.01562
7.083334 84.42851 5.481762 40.01934 59.99414
7.116668 84.76246 5.481482 39.99756 59.99406
7.150000 85.09601 5.481021 39.99818 60.01401
7.183334 85.43026 5.480722 40.00108 59.99742
7.216666 85.76316 5.480212 39.98148 59.99382
7.250000 86.09559 5.479717 40.01322 59.99748
7.283334 86.42851 5.479066 39.99562 60.00544
7.316666 86.76089 5.478389 39.99260 59.99433
7.350000 87.09431 5.478166 40.00400 60.01215
7.383332 87.42772 5.477900 40.00302 59.98976
7.416666 87.76150 5.477518 39.98846 60.00452
7.450000 88.09590 5.477213 40.00587 59.99306
7.483332 88.42969 5.477022 39.99436 59.99850
7.516668 88.76444 5.476720 40.01976 59.99820
7.550000 89.09862 5.476265 39.99212 60.00410
7.583334 89.43178 5.475610 40.00835 60.00097
7.616668 89.76400 5.474902 39.99170 60.00732
7.650000 90.09812 5.474553 40.00024 59.99531
7.683334 90.43399 5.474370 40.00083 59.99698
7.716666 90.76551 5.473426 39.99441 60.00168
7.750000 91.09928 5.473096 40.00199 60.00587
7.783334 91.43194 5.472472 40.00625 59.99982
7.816666 91.76509 5.472200 39.99069 59.99907
7.850000 92.09930 5.471787 40.00406 59.99492
7.883332 92.43326 5.471172 39.99570 60.00031
7.916666 92.76641 5.470606 40.00294 59.99832
7.950000 93.10058 5.470011 40.00108 60.00012
7.983332 93.43414 5.469670 40.00662 59.99407
8.016666 93.76828 5.469096 40.00296 60.00615
8.050000 94.10192 5.468545 39.99221 60.00234
8.083332 94.43614 5.468011 39.99472 59.99213
8.116668 94.77047 5.467585 40.00548 60.00449
8.150000 95.10348 5.466865 40.00206 60.00986
8.183334 95.43548 5.466000 39.99082 59.98888
8.216666 95.76962 5.465320 40.00683 60.01124
8.250000 96.10342 5.464864 39.99863 59.98446
8.283334 96.43553 5.463979 40.00588 60.01539
8.316666 96.77006 5.463778 39.99115 59.99654
8.350000 97.10320 5.462609 40.00386 60.00410
8.383332 97.43562 5.461656 40.00325 59.98650
8.416668 97.76831 5.461294 39.99474 60.00470
8.450000 98.10172 5.460579 39.99833 60.00299
8.483334 98.43631 5.460003 40.00914 60.00430
8.516666 98.77003 5.459363 39.99036 59.99318
8.550000 99.10300 5.458630 40.01160 59.99930
8.583332 99.43725 5.457879 39.99544 60.00493
8.616668 99.77045 5.457299 40.00406 60.00212
8.650000 100.1045 5.456524 39.99421 59.99328
8.683334 100.4389 5.455889 39.99676 60.00159
8.716666 100.7733 5.455376 40.00506 60.01118
8.750000 101.1058 5.454356 39.99618 59.98721
8.783334 101.4389 5.453043 40.00494 60.00393
8.816666 101.7688 5.451783 39.99714 59.99514
8.850000 102.1029 5.451191 39.99472 60.01060
8.883332 102.4371 5.450739 40.01118 59.99672
8.916668 102.7700 5.449551 39.99342 59.99516
8.950000 103.1027 5.448604 39.99752 59.99701
8.983334 103.4360 5.447930 40.00108 60.00176
9.016666 103.7688 5.446794 39.99861 60.00239
9.050000 104.1023 5.446192 40.00737 59.99468
9.083332 104.4376 5.445115 40.00096 60.00117
9.116668 104.7697 5.443829 39.99678 60.00500
9.150000 105.1045 5.443075 39.99634 59.99741
9.183334 105.4385 5.442200 40.00730 60.00151
9.216666 105.7721 5.441391 39.99912 60.01330
9.250000 106.1072 5.440527 40.00620 59.99671
9.283334 106.4393 5.439161 39.98362 59.98970
9.316666 106.7727 5.437926 40.00358 60.00356
9.350000 107.1049 5.436671 40.00920 59.99355
9.383332 107.4355 5.435293 39.99635 59.99717
9.416668 107.7677 5.434067 39.99653 60.00993
9.450000 108.1014 5.433310 39.99740 59.99160
9.483334 108.4358 5.432597 39.99905 60.00280
9.516666 108.7710 5.431624 40.00820 60.00835
9.550000 109.1054 5.430570 39.99282 59.99176
9.583332 109.4380 5.429132 39.99716 60.00996
9.616668 109.7707 5.427592 40.00704 60.00016
9.650000 110.1026 5.426168 39.99734 59.99326
9.683334 110.4354 5.424952 39.99756 59.99658
9.716666 110.7692 5.423876 40.00008 59.99661
9.750000 111.1001 5.422641 39.99847 60.00279
9.783334 111.4346 5.421432 40.00295 60.00562
9.816666 111.7659 5.419688 40.00298 59.99506
9.850000 112.0977 5.418028 40.00711 60.00468
9.883332 112.4334 5.417166 39.98804 59.99584
9.916668 112.7685 5.416192 39.99698 60.00639
9.950000 113.1062 5.415574 40.00796 59.99730
9.983334 113.4393 5.413531 40.00327 59.99982
10.01667 113.7713 5.411604 39.99014 59.99521
10.05000 114.1062 5.410474 40.00669 60.01004
10.08333 114.4398 5.409052 39.99176 59.98946
10.11667 114.7734 5.407612 40.00857 60.00300
10.15000 115.1057 5.405761 40.00084 60.00388
10.18333 115.4389 5.404268 39.99964 60.00239
10.21667 115.7719 5.402786 40.00352 59.99350
10.25000 116.1064 5.401470 39.98887 60.00244
10.28333 116.4399 5.399842 40.01065 60.00368
10.31667 116.7731 5.398250 39.99709 59.99340
10.35000 117.1061 5.396680 40.00218 60.00906
10.38333 117.4393 5.394894 39.98830 59.99662
10.41667 117.7735 5.393165 40.01203 60.00410
10.45000 118.1075 5.391660 39.99284 59.99363
10.48333 118.4392 5.389758 39.99930 59.99542
10.51666 118.7728 5.387898 40.00080 60.01162
10.55000 119.1062 5.386426 39.99604 59.99452
10.58333 119.4415 5.384749 40.00903 60.00110
10.61667 119.7733 5.382632 39.99968 59.99561
10.65000 120.1050 5.380630 39.98967 59.99399
10.68334 120.4388 5.378952 40.01160 59.99974
10.71666 120.7736 5.377461 39.99426 60.00830
10.75000 121.1084 5.375658 39.99843 59.99238
10.78334 121.4402 5.373472 40.00738 60.01143
10.81666 121.7727 5.371458 40.00368 59.98896
10.85000 122.1056 5.369545 39.98755 59.99810
10.88333 122.4378 5.367526 40.01101 59.99650
10.91667 122.7724 5.365682 39.98618 60.00132
10.95000 123.1050 5.363650 40.00574 60.00750
10.98334 123.4369 5.361572 39.99689 59.99361
11.01666 123.7693 5.359442 40.00980 60.01580
11.05000 124.1033 5.357434 39.99993 59.98800
11.08333 124.4377 5.355464 40.00098 60.01038
11.11667 124.7688 5.353230 39.98713 59.98728
11.15000 125.1019 5.351130 40.00079 59.99812
11.18334 125.4346 5.348898 40.01480 60.01264
11.21666 125.7674 5.346597 39.99378 59.99687
11.25000 126.1000 5.344629 39.98884 59.99594
11.28334 126.4352 5.342703 40.01224 60.00768
11.31666 126.7700 5.340496 40.00030 59.99769
11.35000 127.1017 5.337949 40.00286 60.00248
11.38333 127.4354 5.335559 39.99512 60.00019
11.41667 127.7687 5.333480 39.99516 59.99258
11.45000 128.1029 5.331477 40.00395 60.00040
11.48334 128.4383 5.329234 40.00442 60.01130
11.51666 128.7708 5.326600 39.99170 59.98670
11.55000 129.1036 5.324249 40.01402 59.99683
11.58333 129.4400 5.322308 39.99724 60.01714
11.61667 129.7730 5.319656 39.99708 59.99928
11.65000 130.1081 5.317555 40.00204 60.00079
11.68334 130.4407 5.314934 40.00174 59.98572
11.71666 130.7724 5.311907 39.99626 59.99405
11.75000 131.1026 5.309171 39.98516 60.00432
11.78334 131.4333 5.306679 40.00806 60.00744
11.81666 131.7669 5.304455 39.99297 59.99719
11.85000 132.0989 5.301804 40.00832 59.99492
11.88333 132.4324 5.299485 40.01083 60.03113
11.91667 132.7663 5.296900 39.97800 59.96684
11.95000 133.0988 5.294114 40.02535 60.01476
11.98334 133.4313 5.291476 39.98540 59.98962
12.01666 133.7646 5.288790 40.00522 60.00129
12.05000 134.0975 5.285948 39.98458 59.98926
12.08333 134.4331 5.283709 40.00422 60.01242
12.11667 134.7686 5.281440 40.00370 59.99541
12.15000 135.1036 5.278675 40.01178 60.01650
12.18334 135.4363 5.275395 40.00316 59.99693
12.21666 135.7642 5.272170 39.99475 59.98728
12.25000 136.0964 5.269310 39.99788 59.99816
12.28334 136.4283 5.266870 39.99907 60.01500
12.31666 136.7619 5.264262 40.00583 59.98814
12.35000 137.0953 5.261270 39.98552 60.00957
12.38333 137.4274 5.258407 40.00236 59.98948
12.41667 137.7614 5.255962 40.00868 60.00056
12.45000 138.1001 5.253950 39.99408 59.99688
12.48334 138.4377 5.251210 39.99110 59.99791
12.51666 138.7712 5.248072 40.00334 60.00666
12.55000 139.1047 5.245132 40.01683 59.99400
12.58333 139.4372 5.241991 39.99664 60.01807
12.61667 139.7684 5.238830 39.98396 59.99380
12.65000 140.1012 5.236026 39.99881 59.98970
12.68334 140.4362 5.233202 40.01606 60.00288
12.71666 140.7661 5.229776 39.99572 59.99810
12.75000 141.0965 5.226730 40.00007 59.99750
12.78334 141.4271 5.223836 39.99145 60.00025
12.81667 141.7596 5.220933 40.00544 60.01116
12.85000 142.0925 5.218052 39.99469 59.98930
12.88333 142.4260 5.215031 39.99509 60.00910
12.91667 142.7604 5.212303 40.01903 60.00250
12.95000 143.0930 5.209130 39.99184 59.99043
12.98334 143.4239 5.205774 39.99644 59.99989
13.01666 143.7595 5.203404 40.00882 59.99659
13.05000 144.0984 5.201322 40.00188 60.01391
13.08333 144.4348 5.198464 39.98541 59.99004
13.11667 144.7689 5.195076 40.01480 60.00499
13.15000 145.1024 5.191848 39.99200 59.99899
13.18333 145.4352 5.188683 40.00234 60.01198
13.21666 145.7681 5.185711 40.00653 59.99664
13.25000 146.0988 5.182383 39.98737 59.99377
13.28334 146.4311 5.179402 40.00785 59.99840
13.31667 146.7627 5.176243 40.00110 60.01060
13.35000 147.0939 5.173152 39.99420 59.99488
13.38333 147.4275 5.170210 40.00582 60.00362
13.41667 147.7620 5.167463 39.99833 60.00015
13.45000 148.0946 5.164314 39.99398 59.99226
13.48334 148.4255 5.161024 39.99898 60.00141
13.51666 148.7605 5.158586 39.99972 59.99982
13.55000 149.0949 5.155790 40.00262 60.00485
13.58333 149.4263 5.152314 40.00408 59.99711
13.61667 149.7596 5.149395 39.99969 59.99657
13.65000 150.0922 5.146346 40.00061 59.99176
13.68333 150.4241 5.143222 40.00439 60.00424
13.71666 150.7555 5.140066 39.98700 60.00707
13.75000 151.0896 5.137329 40.00459 59.99938
13.78334 151.4252 5.134809 40.00247 59.99438
13.81667 151.7606 5.132139 39.99828 60.00341
13.85000 152.0943 5.129032 40.01169 60.00369
13.88333 152.4276 5.126110 39.99422 59.99459
13.91667 152.7605 5.122920 39.98962 60.00076
13.95000 153.0934 5.119924 40.01245 60.00474
