CLOSED
Version	1.0
Language	English
Run	1
RunSerial	824
Instrument	TGA Q500 V6.7 Build 203
Module	TGA
InstSerial	0500-0499
Operator	at615
File	C:\TA\Data\TGA\ak794\anders\ZIF8cellulose rods sample 4.001
FurnaceType	Standard
Sample	ZIF8 cellulose rods in air s4
Size	4.82900	mg
ProcName
Method	
Comment	
Xcomment	Pan: Platinum
Xcomment	Gas1: Air
Xcomment	Gas2: Air
Xcomment	Balance Gas: Air 40.0 ml/min
Xcomment	Sample Gas: Air 60.0 ml/min
Text	Cellulose rods and zif8 degradation in air. Sample 4
Kcell	1.00000
TempCal	3	pts	20.00	20.00,364.00	356.00,776.00	770.00
InstCalDate	Weight Date 2013-03-01 10:10:44
Controls	Gas 2  Event Off  Sampling 2.0
Nsig	5
Sig1	Time (min)
Sig2	Temperature (°C)
Sig3	Weight (mg)
Sig4	Balance Purge Flow (mL/min)
Sig5	Sample Purge Flow (mL/min)
AirCoolTime	20.0 min
AutoAnalysis	Off
MacroFile
Date	2013-03-12
Time	09:48:15
OrgMethod	1: Ramp 10.00 °C/min to 600.00 °C
OrgFile	C:\Users\AIM_Group\Desktop\post doc cambridge\Students files\Internships\Anders\anders tga\anders\ZIF8cellulose rods sample 4.001
0.01618334 15.91824 4.828526 40.00746 60.00072
0.01666667 15.92999 4.827926 40.00878 59.99070
0.05000000 15.96954 4.827945 39.97903 59.99899
0.08333334 16.03725 4.827420 40.00845 60.00315
0.1166666 16.13331 4.827590 40.01412 60.01006
0.1500000 16.24963 4.827315 39.99587 59.98882
0.1833334 16.38982 4.827378 39.99028 59.99426
0.2166667 16.54698 4.827378 40.00136 60.02268
0.2500000 16.72131 4.826984 39.99156 59.98771
0.2833333 16.91218 4.827128 40.01637 59.98754
0.3166666 17.11548 4.826663 39.99175 60.01042
0.3500000 17.33044 4.826564 40.00028 59.99324
0.3833333 17.55687 4.826363 39.99242 59.99899
0.4166666 17.79375 4.825870 39.99738 59.99761
0.4500000 18.03853 4.825862 40.00701 60.00979
0.4833333 18.29136 4.825194 39.99986 59.98828
0.5166666 18.55032 4.824976 40.00769 60.01872
0.5500000 18.81850 4.824450 39.99290 59.99038
0.5833332 19.09230 4.824034 39.99806 60.00508
0.6166668 19.37049 4.823692 39.99394 59.99339
0.6500000 19.65437 4.822935 40.01664 60.00664
0.6833334 19.94509 4.822642 39.99460 60.00276
0.7166666 20.23703 4.822026 40.00830 59.99426
0.7500000 20.53478 4.821661 39.98555 59.99855
0.7833334 20.83424 4.821452 40.00266 60.00392
0.8166668 21.13804 4.821087 40.00206 60.00120
0.8500000 21.44394 4.820876 39.99889 59.99145
0.8833332 21.75223 4.820339 40.01275 59.99966
0.9166668 22.06318 4.819663 39.99597 60.00981
0.9500000 22.37604 4.818998 39.99087 59.99382
0.9833334 22.69092 4.818759 40.00942 59.99786
1.016667 23.00859 4.818402 39.99939 60.00650
1.050000 23.32732 4.817144 39.98990 59.98945
1.083334 23.64680 4.816431 39.99528 60.00109
1.116667 23.96607 4.815828 40.00950 60.00280
1.150000 24.28825 4.815216 40.00143 59.99976
1.183333 24.61124 4.814601 39.99839 60.00066
1.216667 24.93429 4.813728 39.99789 59.99895
1.250000 25.25798 4.813144 39.99558 60.00485
1.283333 25.58142 4.812444 40.00772 60.00146
1.316667 25.90545 4.811798 40.00026 60.00037
1.350000 26.23094 4.811063 40.00704 60.00022
1.383333 26.55584 4.810402 39.98882 59.99110
1.416666 26.88120 4.810190 39.99513 60.00484
1.450000 27.20588 4.809738 40.00382 59.99488
1.483334 27.53152 4.809290 40.00900 60.01028
1.516666 27.85594 4.808472 39.99490 59.98958
1.550000 28.18143 4.807371 40.00088 60.01936
1.583334 28.50560 4.806666 39.99930 59.99862
1.616666 28.83138 4.806406 40.00325 59.98253
1.650000 29.15540 4.805930 39.99510 60.00028
1.683333 29.47905 4.804714 39.99774 60.01103
1.716667 29.80442 4.803700 40.00789 60.00672
1.750000 30.12749 4.803429 39.99396 59.98278
1.783333 30.45175 4.802915 40.00024 60.00488
1.816667 30.77555 4.802790 40.00845 59.99548
1.850000 31.09863 4.801756 39.99019 60.00764
1.883334 31.42118 4.801250 39.99446 59.99129
1.916666 31.74530 4.800650 40.01279 60.00309
1.950000 32.06831 4.799700 39.99664 60.00694
1.983334 32.39104 4.798758 40.00272 59.98611
2.016666 32.71280 4.798161 39.99516 60.01180
2.050000 33.03614 4.797934 40.00704 60.00257
2.083333 33.35894 4.796955 39.99820 60.01581
2.116666 33.68132 4.796308 39.99954 59.98308
2.150000 34.00354 4.795736 39.99248 59.99356
2.183334 34.32492 4.794928 40.00522 59.99888
2.216667 34.64723 4.794336 39.99475 60.00160
2.250000 34.96942 4.793895 40.00220 60.01171
2.283333 35.29160 4.793189 40.00007 59.99179
2.316666 35.61348 4.792498 39.99760 59.99988
2.350000 35.93547 4.791688 40.00356 59.99914
2.383334 36.25796 4.791390 39.99933 59.99488
2.416667 36.58103 4.791219 39.99836 60.00813
2.450000 36.90300 4.790657 40.00814 60.00243
2.483334 37.22460 4.789784 39.99042 59.99734
2.516666 37.54566 4.788680 39.99900 59.99832
2.550000 37.86738 4.787882 40.00045 59.99731
2.583333 38.19124 4.787778 40.00006 59.99450
2.616666 38.51472 4.787748 40.00946 60.00590
2.650000 38.83779 4.786937 40.00007 60.00126
2.683334 39.15948 4.786040 39.99560 60.00018
2.716667 39.48285 4.785339 39.99728 59.99776
2.750000 39.80688 4.785084 40.00624 59.99782
2.783333 40.12995 4.784741 39.99408 59.99998
2.816666 40.45222 4.784168 39.99582 60.00794
2.850000 40.77658 4.783748 40.01033 59.99304
2.883334 41.10015 4.783381 39.99717 60.00696
2.916667 41.42409 4.782274 39.99807 59.99275
2.950000 41.74680 4.781816 40.00372 60.00916
2.983334 42.07121 4.781458 40.00116 59.98728
3.016666 42.39696 4.781134 39.98791 60.01020
3.050000 42.71922 4.779761 40.00138 59.99004
3.083333 43.04404 4.778435 40.00744 60.01011
3.116666 43.36950 4.777584 39.99578 60.00443
3.150000 43.69293 4.777219 40.00336 59.99356
3.183334 44.01936 4.776982 40.00492 59.99639
3.216667 44.34519 4.776264 39.99342 59.99434
3.250000 44.67004 4.775456 39.99320 60.00479
3.283333 44.99684 4.775166 40.00039 60.00257
3.316666 45.32340 4.774796 40.01070 60.00270
3.350000 45.64866 4.774446 39.99675 60.00040
3.383334 45.97502 4.773666 40.01076 59.99574
3.416667 46.30234 4.773367 39.98244 59.99820
3.450000 46.62918 4.772988 40.00609 60.00205
3.483333 46.95618 4.772309 39.99713 60.00192
3.516667 47.28246 4.771752 40.00419 59.99654
3.550000 47.61007 4.771469 40.00402 59.99668
3.583333 47.93750 4.770822 39.99023 60.00805
3.616666 48.26489 4.770306 40.01269 59.99882
3.650000 48.59224 4.769872 39.99218 60.00726
3.683334 48.92089 4.769467 39.99700 59.98824
3.716667 49.24913 4.769092 40.00276 60.00488
3.750000 49.57759 4.768592 40.00671 59.99633
3.783333 49.90572 4.768160 39.99135 60.00624
3.816666 50.23544 4.767838 39.99919 59.99468
3.850000 50.56306 4.767442 39.99814 60.00480
3.883334 50.89250 4.766870 40.00135 60.00452
3.916667 51.21976 4.766422 40.00253 59.99388
3.950000 51.55045 4.765988 40.00710 59.99364
3.983333 51.88100 4.765861 39.98590 59.99900
4.016667 52.20961 4.765314 40.00292 60.00012
4.050000 52.53998 4.764644 40.01210 59.99932
4.083334 52.86872 4.764126 39.99580 59.99780
4.116667 53.19880 4.763746 39.99483 60.00299
4.150000 53.53097 4.763702 40.00317 59.99634
4.183334 53.86156 4.763379 40.01050 59.99770
4.216667 54.19140 4.763057 39.99920 60.01560
4.250000 54.52300 4.762668 40.00266 59.99592
4.283333 54.85271 4.762231 39.98090 60.00363
4.316666 55.18596 4.762036 40.00144 59.98985
4.350000 55.51664 4.761802 40.01019 59.99788
4.383333 55.84749 4.761176 39.98947 60.00550
4.416666 56.17738 4.760380 40.01125 59.99474
4.450000 56.50810 4.760266 39.99067 60.01990
4.483333 56.83880 4.759762 39.99950 59.98549
4.516667 57.17132 4.759606 40.00942 59.99459
4.550000 57.50445 4.759700 40.00635 59.99683
4.583334 57.83644 4.759406 39.98000 60.00361
4.616667 58.16744 4.758858 40.01459 60.01438
4.650000 58.49842 4.758191 39.99811 59.99758
4.683334 58.83008 4.758172 39.98925 59.99606
4.716667 59.16232 4.757846 39.99548 60.00994
4.750000 59.49360 4.757481 40.02142 59.99021
4.783333 59.82497 4.757215 39.98436 60.00576
4.816666 60.15736 4.756888 40.00589 59.99650
4.850000 60.48940 4.756548 40.01150 59.99140
4.883333 60.82018 4.755739 40.00188 60.00700
4.916666 61.15070 4.754950 39.97981 59.99580
4.950000 61.48492 4.755272 40.01412 59.99905
4.983333 61.81884 4.755285 40.00682 60.01778
5.016667 62.15112 4.755110 39.98471 59.99424
5.050000 62.48376 4.755044 39.99256 59.99211
5.083334 62.81502 4.754168 39.99953 59.99818
5.116667 63.14761 4.753762 40.00248 59.99550
5.150000 63.47962 4.753276 39.99810 60.01456
5.183334 63.81296 4.753296 40.01208 59.98270
5.216667 64.14668 4.753298 39.98760 60.00398
5.250000 64.47890 4.752873 40.00132 59.99798
5.283332 64.81204 4.752540 39.99984 60.01084
5.316666 65.14475 4.752222 40.00244 59.99553
5.350000 65.47780 4.752019 40.01155 59.99954
5.383332 65.81000 4.751334 39.99781 59.99537
5.416666 66.14344 4.751072 39.99578 60.00530
5.450000 66.47590 4.750924 39.99398 59.99913
5.483332 66.80987 4.750918 40.00391 59.99693
5.516668 67.14304 4.750670 40.00050 60.00762
5.550000 67.47666 4.750326 40.00837 59.99286
5.583334 67.81090 4.750172 39.99841 60.00352
5.616668 68.14365 4.749858 39.99632 60.00471
5.650000 68.47714 4.749582 39.99726 59.98684
5.683334 68.81022 4.749146 39.99548 60.00500
5.716668 69.14490 4.748874 40.00740 60.01340
5.750000 69.47734 4.748700 40.00302 59.98007
5.783332 69.81171 4.748392 39.99532 60.01552
5.816666 70.14378 4.748280 39.99400 59.99407
5.850000 70.47779 4.747983 40.01812 59.99137
5.883332 70.81122 4.747707 39.99572 60.01664
5.916666 71.14250 4.747054 39.99530 59.99843
5.950000 71.47486 4.746630 39.99375 60.00056
5.983332 71.80803 4.746332 40.00744 60.00242
6.016668 72.14109 4.746046 39.98656 59.99319
6.050000 72.47421 4.745550 40.00926 60.00186
6.083334 72.80820 4.745284 39.99652 59.99192
6.116668 73.14206 4.745198 39.99510 60.01250
6.150000 73.47638 4.745070 40.01370 59.98470
6.183334 73.81012 4.744836 39.99059 60.01418
6.216668 74.14313 4.744597 40.00469 59.99249
6.250000 74.47765 4.744455 40.00464 59.99205
6.283332 74.80974 4.743674 39.99689 60.00379
6.316666 75.14313 4.743197 40.00016 60.00412
6.350000 75.47602 4.743011 40.00400 60.00390
6.383332 75.81059 4.742802 39.99512 59.99631
6.416666 76.14400 4.742630 39.99590 60.00058
6.450000 76.47866 4.742338 40.00642 60.00094
6.483332 76.81220 4.741976 39.98985 60.00570
6.516668 77.14490 4.741370 40.00598 59.99531
6.550000 77.47939 4.741297 39.99681 59.99895
6.583334 77.81162 4.740772 40.00803 60.00142
6.616668 78.14600 4.740362 39.99890 59.99844
6.650000 78.48071 4.740078 39.99776 59.99614
6.683334 78.81096 4.739074 39.99952 60.00391
6.716666 79.14497 4.738860 39.99757 59.99184
6.750000 79.47999 4.739039 39.99937 60.00834
6.783334 79.81430 4.738810 40.00910 59.99856
6.816666 80.14825 4.738129 39.99236 60.00212
6.850000 80.48222 4.737907 39.99889 60.00118
6.883332 80.81625 4.737324 40.01138 59.99419
6.916666 81.14998 4.736950 39.99586 60.00159
6.950000 81.48361 4.736688 39.99834 60.00268
6.983332 81.81946 4.736484 40.00363 60.00078
7.016668 82.15369 4.736100 39.99059 59.99637
7.050000 82.48824 4.735877 40.00009 60.00830
7.083334 82.82210 4.735466 40.00102 59.99481
7.116668 83.15655 4.734920 40.00110 60.00268
7.150000 83.48861 4.734031 39.99956 59.98837
7.183334 83.82069 4.733347 40.00034 60.00451
7.216666 84.15259 4.732636 39.99640 60.00559
7.250000 84.48457 4.731848 39.99878 59.99982
7.283334 84.81895 4.731756 40.00854 59.99746
7.316666 85.15449 4.731574 39.99890 59.99428
7.350000 85.48876 4.731117 39.99804 60.00700
7.383332 85.82280 4.730636 39.99418 60.00000
7.416666 86.15636 4.730041 40.00429 60.00092
7.450000 86.49038 4.729494 40.00153 59.99195
7.483332 86.82364 4.728931 40.00002 59.99991
7.516668 87.15808 4.728354 40.00225 60.00288
7.550000 87.49274 4.727974 39.99444 60.00482
7.583334 87.82453 4.727228 39.99761 60.00305
7.616668 88.15754 4.726276 40.00640 59.99440
7.650000 88.49112 4.725811 40.00010 60.00637
7.683334 88.82486 4.725526 40.00128 59.99011
7.716666 89.15958 4.724924 39.99934 59.99752
7.750000 89.49347 4.724291 39.99254 60.00674
7.783334 89.82731 4.723534 40.01091 59.99684
7.816666 90.15894 4.722592 39.99772 59.98974
7.850000 90.49171 4.721886 40.00015 60.00395
7.883332 90.82524 4.721172 39.99408 60.01397
7.916666 91.15841 4.720837 40.00126 59.99328
7.950000 91.49298 4.720300 40.00166 60.00307
7.983332 91.82618 4.719541 40.00326 60.00078
8.016666 92.15951 4.718681 39.99681 59.99281
8.050000 92.49181 4.717766 40.00244 60.00504
8.083332 92.82531 4.717152 39.99490 59.99950
8.116668 93.15830 4.716463 39.99958 60.00344
8.150000 93.49071 4.715513 39.99782 59.99652
8.183334 93.82238 4.714532 40.00944 60.00485
8.216666 94.15766 4.713938 39.99410 59.99180
8.250000 94.49085 4.713194 40.01274 60.00626
8.283334 94.82441 4.712261 39.98741 59.99765
8.316666 95.15732 4.711319 40.01061 60.00949
8.350000 95.49168 4.710698 39.99286 59.98818
8.383332 95.82414 4.709534 39.99170 59.99937
8.416668 96.15754 4.708579 40.01445 59.99670
8.450000 96.49272 4.708150 39.98770 60.00864
8.483334 96.82547 4.707187 40.00419 60.00886
8.516666 97.15814 4.705951 40.00224 59.98755
8.550000 97.49109 4.704674 39.98844 60.00613
8.583332 97.82499 4.703858 40.01408 59.99497
8.616668 98.15805 4.702992 39.98684 60.00299
8.650000 98.49212 4.702037 40.00430 59.99717
8.683334 98.82468 4.700840 40.00249 60.00450
8.716666 99.15855 4.699768 39.99526 60.00020
8.750000 99.49103 4.698944 40.00170 59.99670
8.783334 99.82574 4.697898 39.99988 60.00246
8.816666 100.1589 4.696822 40.01090 59.99806
8.850000 100.4926 4.695793 39.98837 59.99913
8.883332 100.8263 4.694704 40.00218 59.99612
8.916668 101.1602 4.693516 40.01436 60.01221
8.950000 101.4913 4.692070 39.99534 59.99350
8.983334 101.8250 4.691019 39.99006 59.98904
9.016666 102.1594 4.689921 40.01000 60.00800
9.050000 102.4927 4.688835 39.98496 60.00237
9.083332 102.8263 4.687434 40.00872 60.00156
9.116668 103.1593 4.686194 39.98942 59.99971
9.150000 103.4941 4.685034 40.00615 60.00095
9.183334 103.8270 4.683572 40.00867 59.99916
9.216666 104.1597 4.681959 40.00094 59.99121
9.250000 104.4924 4.680540 39.99196 60.00892
9.283334 104.8248 4.679140 40.00414 59.99193
9.316666 105.1593 4.677783 39.98887 60.00456
9.350000 105.4924 4.676436 40.01047 59.99739
9.383332 105.8246 4.675056 40.00454 60.00621
9.416668 106.1604 4.673764 39.99813 59.99276
9.450000 106.4932 4.672200 39.99914 60.00937
9.483334 106.8250 4.670379 39.99306 60.00142
9.516666 107.1572 4.668754 40.01080 59.98842
9.550000 107.4918 4.667266 39.99611 59.99940
9.583332 107.8257 4.665791 40.00156 59.99874
9.616668 108.1601 4.664282 39.99744 59.99829
9.650000 108.4928 4.662696 39.99050 60.01098
9.683334 108.8266 4.660960 40.01263 59.99120
9.716666 109.1604 4.659207 40.00082 60.00933
9.750000 109.4923 4.657288 40.00589 59.98863
9.783334 109.8254 4.655386 39.97615 60.01926
9.816666 110.1581 4.653472 40.02398 59.98114
9.850000 110.4903 4.651600 39.97748 60.01518
9.883332 110.8234 4.649652 40.00479 59.99992
9.916668 111.1564 4.647813 40.01661 59.99528
9.950000 111.4890 4.645968 39.99733 59.99030
9.983334 111.8218 4.644009 39.97956 60.01277
10.01667 112.1554 4.641966 40.01050 60.00239
10.05000 112.4889 4.639942 39.99143 60.00276
10.08333 112.8244 4.638082 40.00008 59.99820
10.11667 113.1585 4.636171 40.01446 59.98814
10.15000 113.4928 4.633950 40.00194 59.99450
10.18333 113.8246 4.631630 40.00260 59.99905
10.21667 114.1582 4.629344 39.99804 60.01781
10.25000 114.4934 4.627291 40.00546 59.98154
10.28333 114.8282 4.625160 39.98206 60.01606
10.31667 115.1614 4.622566 40.00861 59.99890
10.35000 115.4940 4.619952 39.99741 59.98940
10.38333 115.8261 4.617421 39.98692 60.01601
10.41667 116.1592 4.614982 40.01894 59.98156
10.45000 116.4916 4.612600 39.99727 60.00496
10.48333 116.8249 4.610212 39.99750 60.01196
10.51666 117.1592 4.607700 39.99942 59.98124
10.55000 117.4922 4.604872 40.00740 60.00286
10.58333 117.8243 4.602100 39.98526 60.01290
10.61667 118.1567 4.599485 39.99930 60.00103
10.65000 118.4907 4.596872 39.99860 59.98668
10.68334 118.8244 4.594189 40.01980 59.99444
10.71666 119.1572 4.591374 39.98066 60.01713
10.75000 119.4913 4.588453 39.99918 60.01230
10.78334 119.8239 4.585584 40.00240 59.98320
10.81666 120.1563 4.582529 40.00712 59.99087
10.85000 120.4906 4.579358 39.99594 60.00005
10.88333 120.8224 4.576250 39.99964 60.01290
10.91667 121.1551 4.573225 40.01588 59.98770
10.95000 121.4887 4.570218 39.98537 60.01643
10.98334 121.8220 4.567260 40.00228 59.99976
11.01666 122.1559 4.564004 40.00350 59.99265
11.05000 122.4884 4.560596 39.98674 60.00482
11.08333 122.8207 4.557103 40.02039 59.98520
11.11667 123.1530 4.553778 39.99078 60.00610
11.15000 123.4872 4.550422 39.99489 60.00253
11.18334 123.8199 4.547004 40.00217 60.01057
11.21666 124.1546 4.543484 39.99324 59.98848
11.25000 124.4862 4.539890 40.00195 60.00618
11.28334 124.8197 4.536320 39.99722 59.99805
11.31666 125.1547 4.532825 40.01279 60.00371
11.35000 125.4891 4.529320 40.00528 59.98094
11.38333 125.8248 4.525710 39.98968 60.01182
11.41667 126.1601 4.521953 39.99416 60.00141
11.45000 126.4947 4.517975 39.99874 59.99989
11.48334 126.8277 4.513930 40.01728 59.99641
11.51666 127.1611 4.509589 39.98555 60.00361
11.55000 127.4909 4.505197 40.01841 59.99272
11.58333 127.8222 4.500855 39.98728 59.99611
11.61667 128.1531 4.496540 40.00570 60.01712
11.65000 128.4843 4.492102 39.98984 59.99051
11.68334 128.8175 4.487828 40.01361 60.00610
11.71666 129.1508 4.483604 39.97981 60.00472
11.75000 129.4856 4.479331 40.02054 59.99220
11.78334 129.8175 4.474563 39.99626 59.99003
11.81666 130.1522 4.470172 39.99084 60.00689
11.85000 130.4887 4.466287 39.99954 59.99598
11.88333 130.8232 4.461666 40.00800 60.00691
11.91667 131.1559 4.456602 39.99664 60.00176
11.95000 131.4893 4.451672 40.00070 59.99656
11.98334 131.8241 4.446912 40.00327 60.00522
12.01666 132.1572 4.441896 39.99307 59.99431
12.05000 132.4915 4.436930 40.00670 60.00056
12.08333 132.8257 4.432059 39.99882 59.99818
12.11667 133.1593 4.427030 39.99635 60.00235
12.15000 133.4923 4.421469 39.99610 60.00926
12.18334 133.8251 4.416094 40.00286 59.99210
12.21666 134.1587 4.410828 40.00835 59.99326
12.25000 134.4922 4.405370 39.99397 60.01116
12.28334 134.8251 4.399824 40.00366 60.00094
12.31666 135.1591 4.394127 39.99844 59.99414
12.35000 135.4910 4.388464 39.99552 60.00369
12.38333 135.8228 4.382578 39.99955 59.99812
12.41667 136.1568 4.377056 40.01126 59.99500
12.45000 136.4903 4.371340 39.98488 60.00834
12.48334 136.8248 4.365570 40.00431 59.98880
12.51666 137.1592 4.359818 40.00847 60.00474
12.55000 137.4954 4.354054 39.99969 60.00390
12.58333 137.8282 4.347946 39.98821 59.99365
12.61667 138.1605 4.341328 40.00628 60.00482
12.65000 138.4951 4.335312 39.99392 59.99871
12.68334 138.8286 4.329124 40.00400 59.99920
12.71666 139.1613 4.322590 39.99652 60.00068
12.75000 139.4984 4.316372 40.01136 60.00020
12.78334 139.8347 4.310750 40.00009 60.00036
12.81667 140.1649 4.303164 39.98860 59.99308
12.85000 140.4990 4.296585 40.00332 59.99930
12.88333 140.8342 4.290191 40.00832 60.01137
12.91667 141.1658 4.283290 39.99055 59.99676
12.95000 141.4992 4.276474 40.01203 59.99918
12.98334 141.8302 4.269075 39.99312 59.99774
13.01666 142.1621 4.262137 39.99592 59.99861
13.05000 142.4924 4.254834 40.00322 60.00412
13.08333 142.8234 4.247734 39.99533 59.99486
13.11667 143.1559 4.240511 40.00447 60.00176
13.15000 143.4900 4.233481 40.05278 60.00879
13.18333 143.8246 4.226363 39.99790 59.98746
13.21666 144.1591 4.219046 40.00884 60.00660
13.25000 144.4912 4.211290 39.99740 59.99451
13.28334 144.8218 4.203350 39.99774 60.00871
13.31667 145.1562 4.195990 40.00203 59.99406
13.35000 145.4908 4.188601 39.99910 60.00527
13.38333 145.8249 4.180746 40.00090 59.99907
13.41667 146.1595 4.172870 40.00002 59.99504
13.45000 146.4915 4.164864 40.00254 60.00422
13.48334 146.8242 4.156683 39.99082 60.00122
13.51666 147.1557 4.148450 40.00854 60.00190
13.55000 147.4890 4.140303 39.99729 59.99389
13.58333 147.8240 4.132348 40.00864 60.00484
13.61667 148.1596 4.124530 39.99646 59.99365
13.65000 148.4904 4.115978 39.99928 59.99880
13.68333 148.8225 4.107314 39.99528 60.02570
13.71666 149.1541 4.098719 39.99570 59.98068
13.75000 149.4885 4.090280 40.01175 60.00012
13.78334 149.8205 4.081662 39.99726 60.00118
13.81667 150.1532 4.072974 39.99588 59.99920
13.85000 150.4858 4.064407 40.00474 60.00049
13.88333 150.8219 4.056148 39.99920 59.99636
13.91667 151.1548 4.047030 39.99384 60.00602
13.95000 151.4875 4.038179 40.00468 59.99207
